Trigger_Date,2023/09/08
Trigger_Time,T 08:38:17.731 PDT
Samples_Per_Cycle,512
Microseconds_Per_Sample,32.546
Time (ms),Voltage (V),Current (A)
-16.66,2.422,4.8
-16.63,10.915,3.23
-16.6,16.916,3.563
-16.57,21.829,3.391
-16.53,23.093,1.65
-16.5,20.847,1.203
-16.47,21.443,2.978
-16.44,26.321,3.975
-16.4,29.059,4.158
-16.37,30.533,4.846
-16.34,34.92,5.567
-16.31,40.219,5.522
-16.27,43.307,5.567
-16.24,45.869,6.289
-16.21,50.011,6.954
-16.18,54.643,7.011
-16.14,57.802,7.102
-16.11,60.925,7.584
-16.08,64.961,8.007
-16.04,68.822,8.225
-16.01,71.594,8.615
-15.98,74.648,9.199
-15.95,78.683,9.508
-15.91,82.193,9.588
-15.88,84.86,9.955
-15.85,87.773,10.505
-15.82,91.458,10.848
-15.78,94.722,11.032
-15.75,97.284,11.456
-15.72,100.197,11.994
-15.69,103.706,12.303
-15.65,106.9,12.452
-15.62,109.708,12.876
-15.59,112.866,13.518
-15.56,116.446,13.999
-15.52,119.464,14.388
-15.49,121.991,14.892
-15.46,125.044,15.316
-15.43,128.378,15.602
-15.39,131.081,15.958
-15.36,133.467,16.565
-15.33,136.45,17.137
-15.3,140.03,17.561
-15.26,143.82,18.042
-15.23,146.347,18.26
-15.2,148.488,18.879
-15.17,151.822,19.142
-15.13,154.84,19.394
-15.1,157.297,19.887
-15.07,159.648,20.666
-15.04,162.666,21.353
-15.0,165.649,21.536
-14.97,168.071,21.811
-14.94,170.387,22.315
-14.91,172.809,22.716
-14.87,175.02,22.968
-14.84,177.266,23.312
-14.81,180.109,23.747
-14.78,182.846,24.206
-14.74,185.513,24.744
-14.71,187.689,25.248
-14.68,189.865,25.683
-14.65,192.427,25.958
-14.61,194.638,26.187
-14.58,196.884,26.531
-14.55,199.306,26.921
-14.52,201.517,27.241
-14.48,203.236,27.631
-14.45,205.167,28.089
-14.42,207.237,28.352
-14.39,209.167,28.524
-14.35,210.887,28.799
-14.32,213.028,29.2
-14.29,214.958,29.613
-14.25,216.783,30.082
-14.22,218.819,30.472
-14.19,221.416,30.655
-14.16,223.381,30.575
-14.12,224.329,30.861
-14.09,226.329,31.274
-14.06,228.68,31.342
-14.03,230.225,31.571
-13.99,231.734,31.984
-13.96,234.155,32.454
-13.93,235.875,32.717
-13.9,236.752,33.152
-13.86,238.297,33.53
-13.83,240.227,33.668
-13.8,242.157,34.0
-13.77,244.017,34.355
-13.73,245.702,34.79
-13.7,247.281,35.214
-13.67,249.036,35.524
-13.64,250.334,35.764
-13.6,251.598,36.222
-13.57,253.528,36.658
-13.54,255.283,36.99
-13.51,256.546,37.563
-13.47,258.195,38.147
-13.44,259.705,38.64
-13.41,261.073,39.155
-13.38,262.442,39.476
-13.34,263.705,39.728
-13.31,264.793,39.945
-13.28,265.565,40.266
-13.25,266.934,40.679
-13.21,268.794,41.034
-13.18,270.584,41.355
-13.15,271.567,41.962
-13.12,272.585,42.557
-13.08,273.567,42.786
-13.05,274.164,43.05
-13.02,275.111,43.531
-12.99,276.48,43.817
-12.95,277.533,44.115
-12.92,278.34,44.631
-12.89,279.077,45.009
-12.86,279.604,45.169
-12.82,279.955,45.398
-12.79,280.516,45.467
-12.76,281.183,45.479
-12.73,281.955,45.719
-12.69,282.657,46.04
-12.66,282.938,46.315
-12.63,283.253,46.475
-12.6,283.464,46.555
-12.56,284.061,46.716
-12.53,284.517,46.567
-12.5,284.166,46.796
-12.46,284.903,47.22
-12.43,285.254,46.991
-12.4,284.341,46.968
-12.37,284.166,47.082
-12.33,284.657,46.807
-12.3,284.166,46.418
-12.27,283.113,46.372
-12.24,283.183,46.338
-12.2,283.464,46.154
-12.17,282.938,46.063
-12.14,282.306,46.086
-12.11,281.499,45.971
-12.07,280.656,45.673
-12.04,279.99,45.318
-12.01,279.463,45.02
-11.98,279.182,44.631
-11.94,278.27,44.356
-11.91,277.007,44.241
-11.88,276.164,44.024
-11.85,275.673,43.474
-11.81,274.374,42.912
-11.78,272.69,42.512
-11.75,271.356,42.053
-11.72,270.514,41.526
-11.68,269.847,41.011
-11.65,268.478,40.576
-11.62,266.794,40.243
-11.59,265.25,39.831
-11.55,263.846,39.132
-11.52,262.021,38.491
-11.49,260.582,38.01
-11.46,259.389,37.54
-11.42,257.88,37.047
-11.39,255.914,36.704
-11.36,254.44,36.303
-11.33,253.247,35.684
-11.29,251.352,35.065
-11.26,248.825,34.699
-11.23,247.176,34.355
-11.2,246.228,33.668
-11.16,244.263,32.958
-11.13,242.157,32.717
-11.1,240.964,32.419
-11.07,239.209,31.709
-11.03,236.612,31.067
-11.0,234.471,30.804
-10.97,233.594,30.426
-10.94,232.365,29.762
-10.9,230.435,29.28
-10.87,227.873,29.086
-10.84,225.136,29.074
-10.81,223.311,28.845
-10.77,221.381,28.307
-10.74,219.029,27.952
-10.71,216.888,27.688
-10.67,214.923,27.356
-10.64,212.642,27.024
-10.61,210.501,26.772
-10.58,208.395,26.485
-10.54,206.149,26.279
-10.51,203.552,25.855
-10.48,200.99,25.615
-10.45,199.692,25.5
-10.41,198.112,25.122
-10.38,195.515,25.053
-10.35,193.164,25.122
-10.32,191.339,24.996
-10.28,189.128,24.698
-10.25,186.566,24.572
-10.22,184.32,24.469
-10.19,182.495,24.022
-10.15,179.617,23.541
-10.12,176.915,23.369
-10.09,175.23,23.083
-10.06,172.984,22.545
-10.02,169.405,22.212
-9.99,166.211,22.121
-9.96,164.491,21.674
-9.93,162.175,20.895
-9.89,159.402,20.528
-9.86,156.7,20.219
-9.83,153.647,19.898
-9.8,150.734,19.578
-9.76,148.137,19.211
-9.73,145.645,18.902
-9.7,143.118,18.455
-9.67,139.925,17.985
-9.63,136.731,17.607
-9.6,133.923,17.286
-9.57,131.361,16.908
-9.54,128.589,16.611
-9.5,125.676,16.347
-9.47,122.552,15.969
-9.44,119.429,15.442
-9.41,116.235,14.949
-9.37,113.814,14.48
-9.34,111.357,13.896
-9.31,107.602,13.495
-9.28,103.812,13.266
-9.24,100.899,12.773
-9.21,98.161,11.994
-9.18,94.687,11.307
-9.15,91.037,10.86
-9.11,87.598,10.379
-9.08,84.123,9.806
-9.05,80.754,9.313
-9.02,77.631,8.855
-8.98,74.261,8.328
-8.95,70.331,7.859
-8.92,66.541,7.48
-8.88,64.119,6.782
-8.85,60.609,5.945
-8.82,55.696,5.888
-8.79,52.046,5.968
-8.75,49.239,5.464
-8.72,45.554,4.788
-8.69,41.518,4.422
-8.66,38.184,4.296
-8.62,36.604,4.8
-8.59,35.025,4.788
-8.56,28.638,3.494
-8.53,21.057,3.116
-8.49,18.25,2.497
-8.46,16.179,1.168
-8.43,14.494,0.309
-8.4,13.266,-0.848
-8.36,11.23,-2.818
-8.33,1.299,-3.127
-8.3,-8.423,-1.524
-8.27,-14.951,-1.615
-8.23,-20.215,-1.524
-8.2,-22.321,-0.172
-8.17,-23.198,0.664
-8.14,-22.812,-0.47
-8.1,-25.725,-1.97
-8.07,-28.989,-2.486
-8.04,-31.726,-2.864
-8.01,-35.376,-3.288
-7.97,-39.833,-3.505
-7.94,-43.799,-3.849
-7.91,-47.203,-4.422
-7.88,-50.362,-5.109
-7.84,-54.222,-5.613
-7.81,-57.942,-5.877
-7.78,-61.136,-6.197
-7.75,-64.645,-6.679
-7.71,-68.822,-6.988
-7.68,-72.226,-7.286
-7.65,-74.963,-7.836
-7.62,-78.087,-8.385
-7.58,-81.667,-8.741
-7.55,-84.895,-9.061
-7.52,-87.914,-9.588
-7.49,-91.388,-10.173
-7.45,-94.757,-10.596
-7.42,-97.6,-10.997
-7.39,-100.688,-11.433
-7.36,-103.882,-11.879
-7.32,-106.865,-12.383
-7.29,-109.988,-12.887
-7.26,-112.761,-13.472
-7.23,-115.955,-14.09
-7.19,-119.499,-14.537
-7.16,-122.237,-14.972
-7.13,-124.869,-15.488
-7.09,-127.466,-16.015
-7.06,-130.309,-16.53
-7.03,-133.186,-16.931
-7.0,-135.959,-17.619
-6.96,-139.293,-18.157
-6.93,-142.346,-18.501
-6.9,-144.803,-18.947
-6.87,-146.593,-19.165
-6.83,-148.979,-19.784
-6.8,-152.699,-20.242
-6.77,-155.753,-20.609
-6.74,-158.174,-21.113
-6.7,-160.42,-21.846
-6.67,-163.509,-22.419
-6.64,-166.316,-22.705
-6.61,-168.562,-23.129
-6.57,-171.019,-23.656
-6.54,-173.37,-24.091
-6.51,-175.371,-24.607
-6.48,-177.968,-25.237
-6.44,-181.161,-25.764
-6.41,-183.969,-26.199
-6.38,-186.18,-26.588
-6.35,-188.075,-27.058
-6.31,-190.497,-27.436
-6.28,-192.848,-27.631
-6.25,-194.814,-27.974
-6.22,-197.656,-28.352
-6.18,-200.604,-28.478
-6.15,-202.605,-28.627
-6.12,-203.868,-28.948
-6.09,-205.026,-29.338
-6.05,-206.711,-29.578
-6.02,-209.027,-29.727
-5.99,-211.343,-29.991
-5.96,-213.625,-30.449
-5.92,-215.695,-30.873
-5.89,-217.31,-31.251
-5.86,-218.748,-31.652
-5.83,-220.784,-31.995
-5.79,-222.89,-32.224
-5.76,-224.82,-32.557
-5.73,-226.68,-32.958
-5.7,-228.329,-33.393
-5.66,-230.33,-33.84
-5.63,-232.19,-34.103
-5.6,-233.839,-34.642
-5.57,-235.419,-34.951
-5.53,-236.752,-35.329
-5.5,-238.963,-35.787
-5.47,-241.209,-35.982
-5.44,-242.332,-36.348
-5.4,-243.842,-37.024
-5.37,-246.228,-37.528
-5.34,-247.913,-37.757
-5.3,-248.72,-38.296
-5.27,-250.334,-38.869
-5.24,-252.58,-39.178
-5.21,-254.581,-39.373
-5.17,-255.984,-39.705
-5.14,-257.002,-40.209
-5.11,-258.441,-40.656
-5.08,-259.81,-40.931
-5.04,-260.828,-41.229
-5.01,-262.337,-41.515
-4.98,-263.776,-41.675
-4.95,-264.442,-41.893
-4.91,-265.144,-42.386
-4.88,-267.004,-42.626
-4.85,-268.513,-42.786
-4.82,-269.391,-43.371
-4.78,-270.584,-44.001
-4.75,-271.672,-44.344
-4.72,-272.585,-44.677
-4.69,-273.672,-45.089
-4.65,-274.796,-45.433
-4.62,-275.673,-45.925
-4.59,-277.042,-46.269
-4.56,-277.779,-46.498
-4.52,-278.305,-46.865
-4.49,-279.112,-47.094
-4.46,-279.639,-47.14
-4.43,-279.955,-47.392
-4.39,-280.832,-47.678
-4.36,-281.358,-47.815
-4.33,-281.639,-48.056
-4.3,-282.271,-48.182
-4.26,-282.587,-48.148
-4.23,-282.411,-48.342
-4.2,-282.306,-48.377
-4.17,-282.587,-48.537
-4.13,-283.183,-48.549
-4.1,-283.218,-48.778
-4.07,-283.569,-49.007
-4.04,-283.324,-48.824
-4.0,-282.657,-48.732
-3.97,-282.376,-48.56
-3.94,-282.201,-48.102
-3.91,-281.639,-47.815
-3.87,-281.464,-47.689
-3.84,-281.288,-47.403
-3.81,-280.621,-47.117
-3.78,-279.639,-46.91
-3.74,-279.253,-46.578
-3.71,-278.761,-46.166
-3.68,-278.13,-45.822
-3.65,-277.287,-45.547
-3.61,-276.585,-45.318
-3.58,-275.989,-45.032
-3.55,-275.182,-44.7
-3.51,-274.023,-44.379
-3.48,-272.935,-43.989
-3.45,-271.812,-43.451
-3.42,-270.374,-42.867
-3.38,-269.286,-42.351
-3.35,-268.549,-41.836
-3.32,-267.566,-41.229
-3.29,-266.092,-40.736
-3.25,-264.828,-40.243
-3.22,-263.249,-39.636
-3.19,-261.284,-39.041
-3.16,-259.74,-38.502
-3.12,-258.932,-37.872
-3.09,-257.809,-37.242
-3.06,-255.984,-36.749
-3.03,-253.984,-36.417
-2.99,-252.335,-35.982
-2.96,-250.861,-35.34
-2.93,-248.93,-34.745
-2.9,-247.105,-34.355
-2.86,-245.667,-33.828
-2.83,-243.561,-33.301
-2.8,-241.455,-32.774
-2.77,-240.051,-32.476
-2.73,-238.788,-31.927
-2.7,-236.296,-31.377
-2.67,-233.91,-31.079
-2.64,-232.611,-30.712
-2.6,-231.277,-30.174
-2.57,-229.102,-29.716
-2.54,-226.715,-29.487
-2.51,-224.995,-29.154
-2.47,-223.03,-28.616
-2.44,-220.538,-28.261
-2.41,-218.398,-27.997
-2.38,-216.432,-27.631
-2.34,-214.326,-27.23
-2.31,-212.151,-26.943
-2.28,-210.536,-26.68
-2.25,-208.676,-26.405
-2.21,-205.974,-26.187
-2.18,-203.622,-26.187
-2.15,-201.938,-25.798
-2.12,-199.797,-25.34
-2.08,-197.937,-25.282
-2.05,-196.568,-25.076
-2.02,-194.252,-24.801
-1.99,-191.339,-24.767
-1.95,-189.128,-24.664
-1.92,-187.198,-24.24
-1.89,-184.776,-23.896
-1.86,-182.32,-23.598
-1.82,-179.723,-23.335
-1.79,-177.336,-23.06
-1.76,-174.985,-22.728
-1.72,-172.704,-22.384
-1.69,-170.457,-22.018
-1.66,-167.755,-21.64
-1.63,-164.737,-21.307
-1.59,-161.964,-20.906
-1.56,-159.473,-20.437
-1.53,-157.051,-20.093
-1.5,-154.7,-19.761
-1.46,-151.366,-19.222
-1.43,-148.102,-19.039
-1.4,-145.399,-18.34
-1.37,-142.522,-17.882
-1.33,-140.276,-17.516
-1.3,-137.608,-16.966
-1.27,-134.695,-16.576
-1.24,-131.537,-16.141
-1.2,-128.589,-15.774
-1.17,-125.992,-15.27
-1.14,-123.184,-14.64
-1.11,-119.78,-14.033
-1.07,-116.27,-13.518
-1.04,-113.217,-12.956
-1.01,-110.304,-12.452
-0.98,-107.391,-11.937
-0.94,-104.057,-11.398
-0.91,-100.583,-10.871
-0.88,-97.144,-10.207
-0.85,-93.634,-9.474
-0.81,-90.054,-8.855
-0.78,-86.966,-8.282
-0.75,-83.807,-7.618
-0.72,-79.947,-7.045
-0.68,-76.157,-6.621
-0.65,-72.787,-6.094
-0.62,-69.453,-5.533
-0.59,-66.014,-5.04
-0.55,-62.469,-4.536
-0.52,-58.89,-4.101
-0.49,-54.994,-3.792
-0.46,-51.555,-3.402
-0.42,-48.221,-2.864
-0.39,-44.641,-2.325
-0.36,-40.57,-1.821
-0.33,-36.674,-1.489
-0.29,-34.604,-2.016
-0.26,-33.727,-2.028
-0.23,-27.55,-0.493
-0.2,-19.724,-0.401
-0.16,-16.951,0.011
-0.13,-15.442,1.535
-0.1,-13.161,2.463
-0.07,-12.95,3.528
-0.03,-8.423,5.201
0.0,2.913,4.284
0.03,10.248,3.276
0.07,16.46,3.643
0.1,20.917,3.185
0.13,22.18,1.501
0.16,19.724,1.134
0.2,20.706,2.921
0.23,25.97,3.883
0.26,28.778,4.204
0.29,30.603,4.937
0.33,35.06,5.59
0.36,40.324,5.625
0.39,43.834,5.625
0.42,46.396,6.209
0.46,50.327,6.839
0.49,54.433,6.999
0.52,57.451,7.16
0.55,60.399,7.618
0.59,64.365,8.053
0.62,68.365,8.248
0.65,71.419,8.592
0.68,74.542,9.119
0.72,78.368,9.474
0.75,81.807,9.726
0.78,84.93,10.127
0.81,87.668,10.631
0.85,90.721,11.146
0.88,94.441,11.433
0.91,97.53,11.662
0.94,100.021,12.257
0.98,103.636,12.784
1.01,107.04,12.933
1.04,109.462,13.288
1.07,112.48,13.918
1.11,116.2,14.411
1.14,119.604,14.743
1.17,122.237,15.144
1.2,124.834,15.66
1.24,127.676,16.129
1.27,130.624,16.496
1.3,133.818,16.828
1.33,137.047,17.103
1.37,139.819,17.642
1.4,143.259,18.317
1.43,145.75,18.512
1.46,147.575,19.085
1.5,150.558,19.543
1.53,154.068,19.921
1.56,156.77,20.311
1.59,159.052,21.009
1.63,162.315,21.628
1.66,165.158,21.766
1.69,167.123,22.075
1.72,169.194,22.693
1.76,172.072,23.129
1.79,175.16,23.163
1.82,177.652,23.255
1.86,179.477,23.862
1.89,182.6,24.526
1.92,185.899,24.698
1.95,187.619,25.053
1.99,189.549,25.718
2.02,192.146,26.222
2.05,194.568,26.474
2.08,196.884,26.737
2.12,199.095,27.127
2.15,201.552,27.539
2.18,203.587,27.917
2.21,205.377,28.33
2.25,207.413,28.513
2.28,209.343,28.616
2.31,211.098,28.891
2.34,213.379,29.315
2.38,215.695,29.613
2.41,217.59,29.933
2.44,219.345,30.346
2.47,221.381,30.724
2.51,222.784,30.758
2.54,223.978,31.045
2.57,226.785,31.652
2.6,229.488,31.652
2.64,229.909,31.972
2.67,230.681,32.683
2.7,233.453,33.107
2.73,236.05,33.118
2.77,237.033,33.496
2.8,239.279,34.057
2.83,242.017,33.966
2.86,242.824,34.069
2.9,243.701,34.664
2.93,246.088,35.008
2.96,247.948,35.237
2.99,249.001,35.707
3.03,250.439,36.177
3.06,252.264,36.509
3.09,253.844,36.761
3.12,255.107,37.116
3.16,256.3,37.735
3.19,258.055,38.33
3.22,259.775,38.708
3.25,261.038,39.109
3.29,262.267,39.43
3.32,263.004,39.808
3.35,263.881,40.358
3.38,265.706,40.518
3.42,267.039,40.553
3.45,268.198,41.171
3.48,269.952,41.71
3.51,271.181,42.065
3.55,271.988,42.546
3.58,272.725,43.084
3.61,273.848,43.428
3.65,275.217,43.623
3.68,276.55,43.84
3.71,277.638,44.23
3.74,278.445,44.734
3.78,279.077,45.078
3.81,279.463,45.318
3.84,280.025,45.536
3.87,280.481,45.605
3.91,281.078,45.719
3.94,281.92,45.914
3.97,282.622,46.212
4.0,283.078,46.349
4.04,283.183,46.601
4.07,283.218,46.681
4.1,283.464,46.773
4.13,283.85,46.796
4.17,283.92,46.842
4.2,284.517,47.048
4.23,284.868,47.036
4.26,284.517,47.185
4.3,284.306,47.208
4.33,284.026,47.094
4.36,283.745,46.956
4.39,283.534,46.704
4.43,283.218,46.555
4.46,283.289,46.544
4.49,283.008,46.418
4.52,282.341,46.269
4.56,281.499,46.177
4.59,281.078,45.914
4.62,280.446,45.49
4.65,279.568,45.192
4.69,278.902,44.952
4.72,278.586,44.654
4.75,278.13,44.207
4.78,276.62,43.852
4.82,274.76,43.669
4.85,273.567,43.279
4.88,272.549,42.592
4.91,271.356,41.927
4.95,270.233,41.492
4.98,269.426,41.045
5.01,268.198,40.495
5.04,266.899,40.026
5.08,265.53,39.567
5.11,263.846,39.006
5.14,261.986,38.536
5.17,260.617,38.101
5.21,259.424,37.586
5.24,257.915,37.07
5.27,256.3,36.6
5.3,254.581,36.131
5.34,252.861,35.673
5.37,251.176,35.226
5.4,249.562,34.722
5.44,247.632,34.172
5.47,245.631,33.748
5.5,243.912,33.244
5.53,242.122,32.855
5.57,240.683,32.591
5.6,238.893,32.087
5.63,236.472,31.606
5.66,234.436,31.308
5.7,232.997,30.93
5.73,231.664,30.437
5.76,229.839,29.945
5.79,227.347,29.704
5.83,225.346,29.544
5.86,224.013,29.04
5.89,221.696,28.398
5.92,218.889,28.181
5.96,217.134,27.952
5.99,215.52,27.39
6.02,213.203,26.955
6.05,210.571,26.898
6.09,208.711,26.737
6.12,206.956,26.268
6.15,204.184,25.729
6.18,201.938,25.638
6.22,199.973,25.179
6.25,197.656,24.824
6.28,195.586,24.813
6.31,194.147,24.721
6.35,191.795,24.354
6.38,188.637,24.251
6.41,186.11,23.988
6.44,183.934,23.621
6.48,182.32,23.392
6.51,179.688,23.129
6.54,176.88,23.117
6.57,174.599,22.945
6.61,172.072,22.671
6.64,169.37,22.419
6.67,167.159,22.086
6.7,165.404,21.422
6.74,162.21,20.792
6.77,159.367,20.448
6.8,156.419,20.036
6.83,153.296,19.852
6.87,150.769,19.658
6.9,148.207,19.337
6.93,145.364,18.993
6.96,142.592,18.558
7.0,139.854,18.123
7.03,137.257,17.584
7.06,134.766,17.057
7.09,132.098,16.633
7.13,129.536,16.118
7.16,125.781,15.728
7.19,122.166,15.534
7.23,119.359,15.133
7.26,116.481,14.617
7.29,113.393,14.297
7.32,110.725,14.079
7.36,107.988,13.666
7.39,104.443,13.185
7.42,100.653,12.819
7.45,97.74,12.315
7.49,94.757,11.524
7.52,91.037,10.86
7.55,87.282,10.447
7.58,84.229,9.955
7.62,80.894,9.279
7.65,77.034,8.786
7.68,73.524,8.466
7.71,70.401,7.927
7.75,66.751,7.309
7.78,62.82,6.931
7.81,59.592,6.507
7.84,56.328,6.003
7.88,52.432,5.602
7.91,48.677,5.407
7.94,45.518,4.972
7.97,41.728,4.422
8.01,37.762,4.17
8.04,35.902,4.892
8.07,36.148,4.903
8.1,30.182,3.276
8.14,21.724,3.104
8.17,18.6,2.623
8.2,16.354,0.974
8.23,13.722,0.103
8.27,12.88,-0.894
8.3,10.318,-2.956
8.33,-0.667,-2.749
8.36,-8.914,-1.272
8.4,-15.091,-1.569
8.43,-19.478,-1.352
8.46,-22.18,0.309
8.49,-22.391,1.306
8.53,-21.689,-0.183
8.56,-25.62,-1.707
8.59,-29.48,-2.085
8.62,-31.866,-2.497
8.66,-34.814,-3.322
8.69,-40.184,-3.826
8.72,-44.992,-4.135
8.75,-48.045,-4.662
8.79,-51.274,-5.487
8.82,-55.345,-5.968
8.85,-58.153,-6.14
8.88,-61.031,-6.518
8.92,-65.137,-6.701
8.95,-68.506,-6.793
8.98,-71.103,-7.24
9.02,-74.297,-7.847
9.05,-78.052,-8.237
9.08,-81.596,-8.466
9.11,-84.439,-8.901
9.15,-87.598,-9.565
9.18,-91.177,-10.138
9.21,-94.547,-10.562
9.24,-97.635,-10.917
9.28,-100.548,-11.318
9.31,-103.496,-11.799
9.34,-106.725,-12.303
9.37,-109.813,-12.83
9.41,-112.48,-13.46
9.44,-115.569,-14.148
9.47,-119.254,-14.617
9.5,-122.623,-14.869
9.54,-124.869,-15.419
9.57,-127.185,-16.141
9.6,-130.379,-16.668
9.63,-133.783,-16.805
9.67,-136.45,-17.286
9.7,-139.047,-17.962
9.73,-141.855,-18.558
9.76,-145.119,-18.833
9.8,-147.47,-18.684
9.83,-149.506,-19.28
9.86,-153.015,-19.864
9.89,-156.314,-20.196
9.93,-158.455,-20.631
9.96,-160.806,-21.342
9.99,-163.754,-21.869
10.02,-166.281,-22.224
10.06,-168.457,-22.682
10.09,-171.054,-23.186
10.12,-173.686,-23.541
10.15,-175.967,-23.896
10.19,-178.389,-24.435
10.22,-181.021,-24.996
10.25,-183.478,-25.546
10.28,-185.689,-26.084
10.32,-188.04,-26.531
10.35,-190.427,-26.817
10.38,-192.603,-27.115
10.41,-194.708,-27.528
10.45,-197.095,-27.974
10.48,-199.13,-28.421
10.51,-201.131,-28.891
10.54,-203.166,-29.235
10.58,-205.167,-29.464
10.61,-206.921,-29.658
10.64,-208.852,-29.979
10.67,-211.203,-30.3
10.71,-213.239,-30.701
10.74,-214.923,-31.228
10.77,-217.38,-31.594
10.81,-220.082,-31.571
10.84,-221.521,-31.743
10.87,-222.714,-32.328
10.9,-225.101,-32.728
10.94,-227.382,-32.774
10.97,-228.645,-33.118
11.0,-230.33,-33.805
11.03,-232.716,-34.195
11.07,-234.12,-34.378
11.1,-235.068,-34.813
11.13,-237.209,-35.237
11.16,-239.806,-35.443
11.2,-241.28,-35.81
11.23,-242.403,-36.474
11.26,-244.298,-37.105
11.29,-246.474,-37.517
11.33,-247.913,-37.792
11.36,-248.93,-38.204
11.39,-250.404,-38.64
11.42,-252.124,-38.972
11.46,-253.879,-39.293
11.49,-255.493,-39.671
11.52,-256.967,-40.094
11.55,-258.055,-40.633
11.59,-259.283,-41.137
11.62,-260.722,-41.332
11.65,-261.951,-41.503
11.68,-263.354,-41.755
11.72,-264.407,-42.042
11.75,-265.425,-42.42
11.78,-267.004,-42.741
11.81,-268.408,-43.142
11.85,-269.531,-43.657
11.88,-270.619,-44.104
11.91,-271.532,-44.482
11.94,-272.409,-44.871
11.98,-273.602,-45.272
12.01,-274.866,-45.673
12.04,-275.954,-46.143
12.07,-277.112,-46.521
12.11,-277.814,-46.796
12.14,-278.13,-47.105
12.17,-278.621,-47.38
12.2,-279.288,-47.38
12.24,-279.884,-47.403
12.27,-280.727,-47.632
12.3,-281.429,-47.781
12.33,-281.393,-47.884
12.37,-282.13,-48.136
12.4,-282.692,-48.033
12.43,-282.341,-48.113
12.46,-282.06,-48.171
12.5,-282.446,-48.182
12.53,-283.359,-48.079
12.56,-283.394,-48.09
12.6,-283.253,-48.285
12.63,-283.113,-48.297
12.66,-282.797,-48.148
12.69,-282.306,-48.033
12.73,-282.341,-47.735
12.76,-281.885,-47.483
12.79,-281.429,-47.506
12.82,-281.253,-47.495
12.86,-280.762,-47.3
12.89,-279.919,-47.151
12.92,-279.358,-46.876
12.95,-278.902,-46.498
12.99,-278.305,-46.074
13.02,-277.463,-45.788
13.05,-277.007,-45.57
13.08,-276.445,-45.238
13.12,-275.252,-44.894
13.15,-273.708,-44.688
13.18,-273.006,-44.253
13.21,-272.234,-43.462
13.25,-270.584,-42.798
13.28,-269.075,-42.466
13.31,-268.513,-42.065
13.34,-267.741,-41.435
13.38,-266.022,-40.965
13.41,-264.442,-40.61
13.44,-263.109,-39.945
13.47,-261.319,-39.235
13.51,-259.634,-38.731
13.54,-258.476,-38.239
13.57,-257.213,-37.712
13.6,-255.809,-37.185
13.64,-254.195,-36.692
13.67,-252.44,-36.211
13.7,-250.58,-35.65
13.73,-248.72,-35.043
13.77,-247.141,-34.458
13.8,-245.596,-33.863
13.83,-243.771,-33.347
13.86,-241.771,-32.855
13.9,-240.402,-32.534
13.93,-239.209,-31.972
