Trigger_Date,2023/06/15
Trigger_Time,T 17:42:36.202 PDT
Samples_Per_Cycle,512
Microseconds_Per_Sample,32.567
Time (ms),Voltage (V),Current (A)
-16.67,3.439,-0.263
-16.64,-0.912,-0.263
-16.61,-4.597,-0.195
-16.58,-7.405,-0.206
-16.54,-9.616,-0.378
-16.51,-11.617,-0.664
-16.48,-13.968,-1.111
-16.45,-16.986,-1.638
-16.41,-20.531,-2.177
-16.38,-24.461,-2.623
-16.35,-28.883,-3.024
-16.32,-33.867,-3.242
-16.28,-38.219,-3.299
-16.25,-41.763,-3.517
-16.22,-45.132,-3.712
-16.19,-48.291,-3.746
-16.15,-51.485,-4.021
-16.12,-55.415,-4.399
-16.09,-59.521,-4.582
-16.06,-63.382,-4.72
-16.02,-66.821,-4.949
-15.99,-70.085,-5.155
-15.96,-73.244,-5.304
-15.93,-76.262,-5.464
-15.89,-79.596,-5.739
-15.86,-83.246,-6.003
-15.83,-86.931,-6.209
-15.79,-90.405,-6.415
-15.76,-93.81,-6.667
-15.73,-97.003,-6.816
-15.7,-99.776,-6.954
-15.66,-102.267,-7.045
-15.63,-104.478,-7.194
-15.6,-106.865,-7.354
-15.57,-109.462,-7.538
-15.53,-112.901,-8.019
-15.5,-116.797,-8.305
-15.47,-120.447,-8.42
-15.44,-123.57,-8.718
-15.4,-127.22,-9.027
-15.37,-130.975,-9.268
-15.34,-134.485,-9.382
-15.31,-137.749,-9.577
-15.27,-140.837,-9.749
-15.24,-144.417,-10.012
-15.21,-147.786,-10.184
-15.18,-150.523,-10.138
-15.14,-152.594,-10.241
-15.11,-155.086,-10.562
-15.08,-158.279,-10.78
-15.05,-161.613,-10.94
-15.01,-164.842,-11.146
-14.98,-167.86,-11.364
-14.95,-170.668,-11.467
-14.92,-173.055,-11.524
-14.88,-175.16,-11.639
-14.85,-177.547,-11.788
-14.82,-180.214,-11.983
-14.79,-183.478,-12.28
-14.75,-187.128,-12.613
-14.72,-190.883,-12.796
-14.69,-193.936,-12.91
-14.65,-196.638,-13.014
-14.62,-198.99,-13.105
-14.59,-201.201,-13.162
-14.56,-203.412,-13.197
-14.52,-205.588,-13.3
-14.49,-207.869,-13.472
-14.46,-210.01,-13.518
-14.43,-211.624,-13.552
-14.39,-212.923,-13.586
-14.36,-214.081,-13.644
-14.33,-215.379,-13.678
-14.3,-216.888,-13.838
-14.26,-218.713,-14.113
-14.23,-221.065,-14.365
-14.2,-223.627,-14.56
-14.17,-226.224,-14.743
-14.13,-228.329,-14.892
-14.1,-230.049,-14.892
-14.07,-231.418,-14.915
-14.04,-233.173,-15.121
-14.0,-235.384,-15.213
-13.97,-237.56,-15.282
-13.94,-239.665,-15.431
-13.91,-241.35,-15.465
-13.87,-242.578,-15.511
-13.84,-244.087,-15.522
-13.81,-245.631,-15.648
-13.78,-246.86,-15.591
-13.74,-248.193,-15.774
-13.71,-250.053,-15.912
-13.68,-252.44,-16.141
-13.65,-255.142,-16.393
-13.61,-257.213,-16.393
-13.58,-258.231,-16.278
-13.55,-259.389,-16.324
-13.52,-261.108,-16.473
-13.48,-263.214,-16.507
-13.45,-264.899,-16.588
-13.42,-266.618,-16.737
-13.38,-268.338,-16.759
-13.35,-269.531,-16.645
-13.32,-270.303,-16.519
-13.29,-270.935,-16.588
-13.25,-272.269,-16.737
-13.22,-273.883,-16.782
-13.19,-275.708,-16.931
-13.16,-277.252,-17.011
-13.12,-278.586,-16.943
-13.09,-279.604,-16.989
-13.06,-281.007,-16.989
-13.03,-282.025,-16.943
-12.99,-282.657,-16.863
-12.96,-283.499,-16.989
-12.93,-285.149,-17.149
-12.9,-286.623,-17.069
-12.86,-287.219,-16.897
-12.83,-287.465,-17.034
-12.8,-288.623,-17.057
-12.77,-289.29,-16.897
-12.73,-288.272,-16.496
-12.7,-287.711,-16.714
-12.67,-288.588,-16.92
-12.64,-290.237,-16.92
-12.6,-290.659,-16.908
-12.57,-290.588,-16.851
-12.54,-291.431,-17.241
-12.51,-292.343,-17.046
-12.47,-292.238,-16.679
-12.44,-292.062,-16.908
-12.41,-293.15,-17.103
-12.38,-293.852,-16.84
-12.34,-293.536,-16.737
-12.31,-293.185,-16.863
-12.28,-293.01,-16.668
-12.25,-291.957,-16.359
-12.21,-290.869,-16.37
-12.18,-290.764,-16.542
-12.15,-291.325,-16.656
-12.11,-291.711,-16.599
-12.08,-291.325,-16.53
-12.05,-290.027,-16.359
-12.02,-288.342,-16.129
-11.98,-286.798,-15.923
-11.95,-285.394,-15.809
-11.92,-284.306,-15.9
-11.89,-283.78,-16.049
-11.85,-283.183,-16.049
-11.82,-281.885,-15.889
-11.79,-279.744,-15.717
-11.76,-277.463,-15.522
-11.72,-274.971,-15.419
-11.69,-273.251,-15.476
-11.66,-272.479,-15.568
-11.63,-272.023,-15.706
-11.59,-271.286,-15.751
-11.56,-270.128,-15.751
-11.53,-268.724,-15.648
-11.5,-266.864,-15.396
-11.46,-264.723,-15.213
-11.43,-262.968,-15.167
-11.4,-261.74,-15.167
-11.37,-260.582,-15.156
-11.33,-259.319,-15.11
-11.3,-257.845,-15.018
-11.27,-256.09,-14.892
-11.24,-253.493,-14.583
-11.2,-251.212,-14.56
-11.17,-249.878,-14.686
-11.14,-248.65,-14.445
-11.11,-246.474,-14.331
-11.07,-244.228,-14.251
-11.04,-242.473,-14.228
-11.01,-240.999,-14.148
-10.97,-239.104,-13.999
-10.94,-237.173,-13.918
-10.91,-235.594,-13.93
-10.88,-234.261,-13.804
-10.84,-232.471,-13.609
-10.81,-230.47,-13.563
-10.78,-228.61,-13.552
-10.75,-226.855,-13.311
-10.71,-224.75,-13.14
-10.68,-221.942,-12.819
-10.65,-219.345,-12.727
-10.62,-218.082,-12.899
-10.58,-217.204,-12.75
-10.55,-215.204,-12.509
-10.52,-212.677,-12.475
-10.49,-210.431,-12.28
-10.45,-207.904,-11.937
-10.42,-205.237,-11.799
-10.39,-203.026,-11.742
-10.36,-201.131,-11.593
-10.32,-199.236,-11.49
-10.29,-197.235,-11.421
-10.26,-195.024,-11.215
-10.23,-192.322,-10.94
-10.19,-189.233,-10.688
-10.16,-186.075,-10.539
-10.13,-183.443,-10.379
-10.1,-181.091,-10.264
-10.06,-179.196,-10.241
-10.03,-177.231,-10.138
-10.0,-174.844,-9.886
-9.97,-171.791,-9.6
-9.93,-168.738,-9.428
-9.9,-166.035,-9.268
-9.87,-163.368,-9.004
-9.84,-160.666,-8.844
-9.8,-158.771,-8.958
-9.77,-156.279,-8.615
-9.74,-152.489,-7.985
-9.7,-148.277,-8.042
-9.67,-145.119,-7.881
-9.64,-143.083,-7.813
-9.61,-141.048,-7.698
-9.57,-138.521,-7.366
-9.54,-135.362,-7.24
-9.51,-132.344,-7.068
-9.48,-129.361,-6.816
-9.44,-126.132,-6.564
-9.41,-122.693,-6.323
-9.38,-119.183,-6.037
-9.35,-115.569,-5.865
-9.31,-112.41,-5.739
-9.28,-109.602,-5.59
-9.25,-106.479,-5.27
-9.22,-102.408,-4.926
-9.18,-97.81,-4.582
-9.15,-92.897,-4.296
-9.12,-88.089,-4.009
-9.09,-83.702,-3.826
-9.05,-79.982,-3.723
-9.02,-76.648,-3.574
-8.99,-73.103,-3.391
-8.96,-69.559,-3.242
-8.92,-65.944,-3.104
-8.89,-62.505,-2.921
-8.86,-59.311,-2.749
-8.83,-56.012,-2.555
-8.79,-52.573,-2.303
-8.76,-48.958,-2.073
-8.73,-45.378,-1.902
-8.7,-41.904,-1.661
-8.66,-38.148,-1.375
-8.63,-34.288,-1.146
-8.6,-30.533,-0.974
-8.57,-27.199,-0.859
-8.53,-24.181,-0.722
-8.5,-21.338,-0.573
-8.47,-18.39,-0.401
-8.43,-15.407,-0.252
-8.4,-12.073,-0.046
-8.37,-8.598,0.16
-8.34,-5.089,0.298
-8.3,-1.79,0.401
-8.27,1.79,0.481
-8.24,5.405,0.584
-8.21,8.844,0.699
-8.17,11.897,0.916
-8.14,14.775,1.237
-8.11,17.407,1.661
-8.08,20.215,2.085
-8.04,24.356,2.577
-8.01,29.094,2.967
-7.98,33.867,3.185
-7.95,38.219,3.288
-7.91,42.044,3.402
-7.88,45.518,3.586
-7.85,49.098,3.746
-7.82,52.538,3.849
-7.78,55.801,3.987
-7.75,59.065,4.158
-7.72,62.434,4.376
-7.69,65.733,4.594
-7.65,68.997,4.777
-7.62,72.261,4.995
-7.59,75.7,5.281
-7.56,79.175,5.476
-7.52,82.544,5.648
-7.49,86.089,5.934
-7.46,89.809,6.175
-7.43,93.318,6.381
-7.39,96.758,6.564
-7.36,100.127,6.793
-7.33,103.391,7.022
-7.29,106.654,7.137
-7.26,109.637,7.274
-7.23,112.936,7.629
-7.2,116.586,7.87
-7.16,120.166,8.03
-7.13,123.254,8.191
-7.1,125.957,8.317
-7.07,128.308,8.408
-7.03,130.659,8.592
-7.0,133.607,8.912
-6.97,137.012,9.142
-6.94,140.521,9.439
-6.9,143.68,9.577
-6.87,146.347,9.668
-6.84,148.698,9.863
-6.81,151.471,10.081
-6.77,154.594,10.31
-6.74,157.788,10.505
-6.71,160.701,10.688
-6.68,163.684,10.906
-6.64,166.737,11.123
-6.61,169.65,11.215
-6.58,171.756,11.204
-6.55,173.265,11.204
-6.51,174.985,11.421
-6.48,177.898,11.822
-6.45,182.214,12.223
-6.42,186.952,12.578
-6.38,191.199,12.842
-6.35,194.884,13.025
-6.32,197.762,13.094
-6.29,200.323,13.059
-6.25,202.64,13.094
-6.22,205.202,13.208
-6.19,207.799,13.254
-6.16,209.834,13.277
-6.12,211.378,13.323
-6.09,212.993,13.414
-6.06,214.432,13.403
-6.02,215.45,13.38
-5.99,216.502,13.506
-5.96,218.082,13.781
-5.93,220.258,14.056
-5.89,222.398,14.193
-5.86,224.294,14.331
-5.83,226.259,14.514
-5.8,227.908,14.594
-5.76,229.172,14.549
-5.73,230.435,14.675
-5.7,232.26,14.904
-5.67,234.541,15.098
-5.63,236.647,15.213
-5.6,238.507,15.385
-5.57,240.753,15.557
-5.54,242.754,15.58
-5.5,244.263,15.557
-5.47,245.596,15.625
-5.44,247.246,15.717
-5.41,249.176,15.843
-5.37,251.212,15.935
-5.34,253.107,16.038
-5.31,255.037,16.187
-5.28,256.757,16.21
-5.24,258.055,16.175
-5.21,259.283,16.267
-5.18,261.003,16.416
-5.15,262.863,16.404
-5.11,264.372,16.45
-5.08,265.846,16.565
-5.05,267.601,16.702
-5.02,269.391,16.679
-4.98,270.409,16.622
-4.95,271.391,16.679
-4.92,272.76,16.759
-4.88,274.304,16.737
-4.85,275.813,16.805
-4.82,277.603,16.966
-4.79,279.323,16.989
-4.75,280.621,16.943
-4.72,281.393,16.954
-4.69,282.376,16.966
-4.66,283.359,16.897
-4.62,284.271,16.943
-4.59,285.535,17.023
-4.56,286.798,17.069
-4.53,287.851,17.08
-4.49,288.623,17.0
-4.46,289.114,16.931
-4.43,289.255,16.817
-4.4,289.22,16.714
-4.36,289.36,16.782
-4.33,290.308,16.989
-4.3,291.36,17.0
-4.27,291.782,16.908
-4.23,291.676,16.954
-4.2,292.448,17.023
-4.17,292.905,17.046
-4.14,292.624,16.656
-4.1,292.203,16.759
-4.07,293.396,17.172
-4.04,294.87,17.115
-4.01,294.73,16.725
-3.97,294.098,16.817
-3.94,293.466,16.679
-3.91,292.87,16.439
-3.88,291.396,16.233
-3.84,290.343,16.301
-3.81,290.343,16.542
-3.78,290.764,16.53
-3.75,290.273,16.416
-3.71,288.763,16.324
-3.68,287.184,16.233
-3.65,285.991,16.129
-3.61,284.903,16.015
-3.58,284.061,16.118
-3.55,283.745,16.278
-3.52,283.113,16.244
-3.48,281.92,16.095
-3.45,280.025,15.912
-3.42,277.849,15.751
-3.39,275.708,15.602
-3.35,273.708,15.499
-3.32,272.374,15.625
-3.29,271.742,15.74
-3.26,270.83,15.74
-3.22,269.566,15.717
-3.19,268.057,15.717
-3.16,266.548,15.58
-3.13,264.864,15.454
-3.09,263.39,15.442
-3.06,262.126,15.385
-3.03,260.793,15.27
-3.0,259.389,15.293
-2.96,258.125,15.259
-2.93,256.581,15.087
-2.9,254.405,14.846
-2.87,251.984,14.72
-2.83,250.124,14.697
-2.8,248.509,14.606
-2.77,246.649,14.434
-2.74,244.859,14.537
-2.7,243.42,14.514
-2.67,241.49,14.159
-2.64,238.718,14.01
-2.61,236.542,14.09
-2.57,235.103,14.01
-2.54,233.594,13.907
-2.51,232.05,13.896
-2.48,230.681,13.884
-2.44,229.242,13.77
-2.41,227.312,13.586
-2.38,224.469,13.14
-2.34,222.083,13.162
-2.31,220.889,13.288
-2.28,219.661,13.036
-2.25,217.696,12.865
-2.21,215.73,12.876
-2.18,214.011,12.739
-2.15,211.729,12.395
-2.12,208.781,12.143
-2.08,205.869,12.028
-2.05,203.587,11.891
-2.02,201.692,11.788
-1.99,199.973,11.753
-1.95,197.972,11.616
-1.92,195.691,11.433
-1.89,192.883,11.169
-1.86,189.655,10.929
-1.82,186.636,10.734
-1.79,183.864,10.585
-1.76,181.618,10.436
-1.73,179.828,10.459
-1.69,178.073,10.379
-1.66,175.441,10.001
-1.63,171.826,9.703
-1.6,168.633,9.668
-1.56,165.93,9.416
-1.53,162.982,9.119
-1.5,160.245,9.084
-1.47,158.069,9.061
-1.43,155.893,8.821
-1.4,152.805,8.477
-1.37,149.155,8.191
-1.34,145.821,8.156
-1.3,142.557,7.824
-1.27,139.468,7.606
-1.24,137.082,7.732
-1.2,135.222,7.584
-1.17,132.835,7.286
-1.14,129.572,7.022
-1.11,125.992,6.805
-1.07,122.412,6.507
-1.04,118.903,6.289
-1.01,115.709,6.071
-0.98,112.585,5.911
-0.94,109.743,5.774
-0.91,106.444,5.51
-0.88,102.513,5.155
-0.85,97.951,4.823
-0.81,93.248,4.525
-0.78,88.615,4.261
-0.75,84.158,3.975
-0.72,79.982,3.838
-0.68,76.402,3.803
-0.65,73.314,3.608
-0.62,69.875,3.402
-0.59,66.295,3.288
-0.55,63.031,3.139
-0.52,59.837,2.967
-0.49,56.679,2.795
-0.46,53.59,2.6
-0.42,50.502,2.429
-0.39,47.414,2.257
-0.36,44.115,1.993
-0.33,40.535,1.695
-0.29,36.885,1.512
-0.26,33.481,1.283
-0.23,30.006,1.065
-0.2,26.462,0.882
-0.16,22.987,0.687
-0.13,19.337,0.481
-0.1,15.582,0.332
-0.07,11.687,0.137
-0.03,7.791,0.0
0.0,4.001,-0.092
0.03,0.281,-0.092
0.07,-3.053,-0.103
0.1,-6.071,-0.183
0.13,-8.879,-0.378
0.16,-11.617,-0.642
0.2,-14.459,-0.997
0.23,-17.477,-1.478
0.26,-20.811,-1.982
0.29,-24.461,-2.429
0.33,-28.568,-2.818
0.36,-33.34,-3.07
0.39,-37.236,-3.001
0.42,-40.605,-3.242
0.46,-44.887,-3.803
0.49,-49.59,-3.998
0.52,-53.555,-3.883
0.55,-56.679,-4.147
0.59,-59.802,-4.399
0.62,-63.031,-4.479
0.65,-66.365,-4.743
0.68,-69.875,-4.972
0.72,-73.174,-5.109
0.75,-76.122,-5.224
0.78,-78.964,-5.441
0.81,-82.053,-5.682
0.85,-85.527,-5.991
0.88,-89.177,-6.22
0.91,-92.862,-6.472
0.94,-96.301,-6.701
0.98,-99.53,-6.85
1.01,-102.267,-6.965
1.04,-104.759,-7.091
1.07,-107.251,-7.32
1.11,-110.304,-7.526
1.14,-113.884,-7.939
1.17,-118.095,-8.282
1.2,-122.166,-8.5
1.24,-125.536,-8.534
1.27,-128.413,-8.832
1.3,-131.361,-9.004
1.34,-134.52,-9.153
1.37,-137.573,-9.313
1.4,-141.048,-9.611
1.43,-144.241,-9.726
1.47,-147.049,-9.794
1.5,-149.155,-9.898
1.53,-151.576,-10.104
1.56,-154.63,-10.447
1.6,-158.279,-10.699
1.63,-161.613,-10.837
1.66,-164.597,-11.066
1.69,-167.72,-11.284
1.73,-170.563,-11.375
1.76,-173.055,-11.433
1.79,-175.301,-11.536
1.82,-177.687,-11.708
1.86,-180.319,-11.902
1.89,-183.618,-12.189
1.92,-187.233,-12.521
1.95,-190.883,-12.739
1.99,-193.901,-12.819
2.02,-196.393,-12.853
2.05,-198.463,-12.968
2.08,-200.885,-13.071
2.12,-203.342,-13.128
2.15,-205.623,-13.231
2.18,-207.904,-13.369
2.21,-210.045,-13.46
2.25,-211.729,-13.483
2.28,-212.993,-13.54
2.31,-214.221,-13.586
2.34,-215.485,-13.609
2.38,-217.099,-13.804
2.41,-219.205,-14.079
2.44,-221.451,-14.331
2.48,-223.767,-14.48
2.51,-225.978,-14.583
2.54,-227.768,-14.697
2.57,-229.628,-14.801
2.61,-231.313,-14.892
2.64,-233.383,-15.053
2.67,-235.454,-15.144
2.7,-237.56,-15.259
2.74,-239.56,-15.373
2.77,-241.174,-15.362
2.8,-242.508,-15.408
2.83,-243.736,-15.476
2.87,-245.21,-15.545
2.9,-246.93,-15.683
2.93,-249.001,-15.843
2.96,-251.071,-15.958
3.0,-253.001,-16.095
3.03,-254.897,-16.255
3.06,-256.546,-16.255
3.09,-257.809,-16.118
3.13,-258.862,-16.175
3.16,-260.301,-16.381
3.19,-262.337,-16.462
3.22,-264.302,-16.507
3.26,-266.162,-16.691
3.29,-268.127,-16.737
3.32,-269.426,-16.622
3.35,-270.023,-16.519
3.39,-270.76,-16.553
3.42,-272.058,-16.702
3.45,-273.708,-16.794
3.48,-275.462,-16.863
3.52,-277.182,-17.0
3.55,-278.937,-17.103
3.58,-280.27,-17.0
3.61,-281.148,-16.943
3.65,-282.166,-16.966
3.68,-282.762,-16.817
3.71,-283.429,-16.84
3.75,-284.868,-17.057
3.78,-286.377,-17.103
3.81,-287.219,-16.943
3.84,-287.57,-17.0
3.88,-288.553,-17.069
3.91,-289.395,-16.966
3.94,-288.623,-16.542
3.97,-287.886,-16.691
4.01,-289.395,-17.126
4.04,-291.08,-17.023
4.07,-290.694,-16.622
4.1,-290.132,-16.943
4.14,-291.255,-17.264
4.17,-292.273,-16.954
4.2,-291.676,-16.633
4.23,-291.255,-16.897
4.27,-292.273,-17.034
4.3,-292.94,-16.863
4.33,-293.08,-16.828
4.36,-293.15,-16.931
4.4,-293.221,-16.782
4.43,-292.589,-16.542
4.46,-291.501,-16.53
4.49,-291.29,-16.622
4.53,-291.782,-16.668
4.56,-292.062,-16.645
4.59,-291.431,-16.553
4.62,-289.992,-16.301
4.66,-287.921,-16.049
4.69,-286.026,-15.912
4.72,-284.622,-15.866
4.75,-283.71,-15.946
4.79,-283.218,-16.118
4.82,-282.587,-16.175
4.85,-281.499,-16.061
4.88,-279.604,-15.889
4.92,-277.322,-15.728
4.95,-275.322,-15.602
4.98,-273.532,-15.568
5.02,-272.479,-15.683
5.05,-271.988,-15.797
5.08,-271.321,-15.774
5.11,-270.128,-15.763
5.15,-268.443,-15.637
5.18,-266.302,-15.35
5.21,-264.056,-15.224
5.24,-262.477,-15.282
5.28,-261.494,-15.27
5.31,-260.231,-15.213
5.34,-258.792,-15.259
5.37,-257.529,-15.305
5.41,-256.195,-15.075
5.44,-253.598,-14.675
5.47,-251.036,-14.663
5.5,-249.527,-14.812
5.54,-248.299,-14.56
5.57,-246.474,-14.423
5.6,-244.614,-14.537
5.63,-243.666,-14.537
5.67,-242.227,-14.285
5.7,-239.946,-14.09
5.73,-237.63,-14.022
5.76,-235.84,-13.918
5.8,-234.12,-13.827
5.83,-232.155,-13.666
5.86,-230.295,-13.632
5.89,-228.61,-13.586
5.93,-226.785,-13.392
5.96,-224.574,-13.151
5.99,-222.083,-13.071
6.02,-220.047,-12.979
6.06,-218.047,-12.796
6.09,-215.871,-12.681
6.12,-213.94,-12.601
6.16,-212.01,-12.464
6.19,-209.554,-12.246
6.22,-206.816,-12.063
6.25,-204.5,-11.983
6.29,-202.359,-11.914
6.32,-200.674,-11.765
6.35,-199.06,-11.719
6.38,-197.305,-11.65
6.42,-195.235,-11.41
6.45,-192.322,-11.112
6.48,-189.198,-10.929
6.51,-186.671,-10.768
6.55,-184.109,-10.516
6.58,-181.793,-10.436
6.61,-179.266,-10.299
6.64,-176.634,-10.035
6.68,-174.529,-10.161
6.71,-172.598,-9.932
6.74,-169.861,-9.52
6.77,-166.071,-9.21
6.81,-162.982,-9.222
6.84,-160.736,-9.142
6.87,-159.052,-9.061
6.9,-156.7,-8.775
6.94,-153.436,-8.466
6.97,-149.646,-8.248
7.0,-146.417,-8.065
7.03,-143.434,-7.904
7.07,-140.521,-7.664
7.1,-137.538,-7.492
7.13,-134.766,-7.4
7.16,-132.063,-7.183
7.2,-129.291,-6.988
7.23,-126.553,-6.873
7.26,-123.746,-6.644
7.29,-120.271,-6.301
7.33,-116.692,-6.049
7.36,-113.147,-5.923
7.39,-110.129,-5.739
7.43,-106.795,-5.418
7.46,-102.864,-5.098
7.49,-98.267,-4.743
7.52,-93.423,-4.399
7.56,-88.44,-4.101
7.59,-83.807,-3.929
7.62,-79.877,-3.803
7.65,-76.367,-3.654
7.69,-72.928,-3.54
7.72,-69.489,-3.391
7.75,-65.839,-3.208
7.78,-62.259,-3.001
7.82,-58.784,-2.864
7.85,-55.766,-2.738
7.88,-52.924,-2.566
7.91,-49.835,-2.325
7.95,-46.396,-2.039
7.98,-42.43,-1.741
8.01,-38.324,-1.512
8.04,-34.393,-1.306
8.08,-30.849,-1.157
8.11,-27.831,-1.031
8.14,-24.847,-0.905
8.17,-21.935,-0.699
8.21,-18.741,-0.504
8.24,-15.617,-0.367
8.27,-12.354,-0.172
8.3,-8.949,0.046
8.34,-5.615,0.137
8.37,-2.351,0.332
8.4,1.474,0.538
8.43,5.37,0.573
8.47,9.019,0.653
8.5,12.283,0.928
8.53,15.231,1.214
8.57,17.899,1.592
8.6,20.461,2.051
8.63,24.321,2.497
8.66,28.883,2.875
8.7,33.656,3.139
8.73,37.903,3.242
8.76,41.588,3.368
8.79,45.062,3.551
8.83,48.607,3.735
8.86,52.292,3.849
8.89,55.696,4.009
8.92,59.1,4.181
8.96,62.505,4.399
8.99,65.909,4.639
9.02,69.418,4.834
9.05,72.823,5.018
9.09,76.192,5.247
9.12,79.561,5.441
9.15,82.755,5.636
9.18,86.159,5.923
9.22,89.844,6.186
9.25,93.459,6.369
9.28,96.722,6.61
9.31,99.951,6.793
9.35,103.18,6.988
9.38,106.233,7.16
9.41,109.146,7.274
9.44,112.375,7.584
9.48,115.99,7.87
9.51,119.534,8.019
9.54,122.658,8.156
9.57,125.325,8.305
9.61,127.711,8.454
9.64,130.414,8.683
9.67,133.923,9.096
9.7,137.538,9.21
9.74,141.013,9.405
9.77,143.996,9.668
9.8,146.979,9.783
9.84,149.365,9.84
9.87,151.787,10.047
9.9,154.594,10.299
9.93,157.788,10.459
9.97,160.912,10.665
10.0,164.0,10.929
10.03,167.229,11.158
10.06,170.247,11.341
10.1,172.949,11.387
10.13,174.95,11.41
10.16,176.845,11.559
10.19,179.617,11.822
10.23,183.337,12.189
10.26,187.479,12.509
10.29,191.374,12.693
10.32,194.989,12.956
10.36,198.499,13.162
10.39,201.762,13.231
10.42,204.64,13.243
10.45,207.202,13.334
10.49,209.554,13.369
10.52,211.414,13.3
10.55,212.852,13.346
10.58,214.642,13.483
10.62,216.783,13.632
10.65,219.415,13.896
10.68,222.398,14.136
10.71,225.276,14.285
10.75,227.487,14.377
10.78,229.593,14.445
10.81,231.383,14.503
10.84,233.067,14.503
10.88,234.366,14.48
10.91,235.068,14.388
10.94,235.735,14.48
10.97,237.209,14.732
11.01,239.349,14.904
11.04,240.823,14.915
11.07,241.631,14.984
11.11,242.754,15.144
11.14,244.052,15.213
11.17,245.21,15.236
11.2,246.544,15.454
11.24,248.65,15.763
11.27,251.247,15.992
11.3,253.528,16.084
11.33,255.388,16.152
11.37,256.932,16.221
11.4,258.266,16.175
11.43,259.108,16.026
11.46,260.336,16.21
11.5,262.442,16.381
11.53,265.074,16.553
11.56,267.426,16.748
11.59,269.496,16.771
11.63,270.76,16.759
11.66,271.742,16.668
11.69,272.479,16.462
11.72,273.322,16.496
11.76,274.76,16.725
11.79,276.656,16.805
11.82,278.41,16.851
11.85,279.884,16.989
11.89,281.253,17.011
11.92,282.201,16.92
11.95,282.867,16.851
11.98,283.64,16.885
12.02,284.798,16.885
12.05,286.026,16.954
12.08,287.43,17.092
12.11,288.799,17.149
12.15,289.922,17.103
12.18,290.483,16.954
12.21,290.413,16.805
12.25,290.343,16.759
12.28,290.483,16.737
12.31,290.869,16.771
12.34,291.817,16.92
12.38,292.448,16.954
12.41,292.624,16.828
12.44,292.273,16.771
12.47,292.203,16.828
12.51,292.308,16.794
12.54,292.484,16.771
12.57,292.905,16.931
12.6,294.028,17.08
12.64,294.554,16.966
12.67,294.308,16.851
12.7,293.536,16.691
12.73,292.975,16.633
12.77,288.658,15.591
12.8,273.216,12.235
12.83,253.212,10.665
12.86,243.526,12.922
12.9,248.158,15.156
12.93,255.493,15.717
12.96,257.529,16.668
12.99,258.511,18.317
13.03,262.582,19.016
13.06,268.233,19.016
13.09,274.129,19.394
13.12,279.463,19.486
13.16,282.657,18.879
13.19,283.92,18.306
13.22,284.236,17.745
13.25,283.429,16.851
13.29,281.323,16.015
13.32,278.691,15.648
13.35,276.726,15.522
13.38,275.146,15.328
13.42,273.111,15.202
13.45,271.075,15.236
13.48,269.18,15.247
13.52,267.004,15.11
13.55,264.618,15.098
13.58,263.144,15.316
13.61,262.617,15.396
13.65,261.81,15.339
13.68,260.477,15.385
13.71,259.319,15.396
13.74,258.231,15.259
13.78,256.616,15.03
13.81,254.51,14.846
13.84,252.756,14.812
13.87,251.247,14.732
13.91,249.562,14.514
13.94,247.456,14.423
13.97,245.631,14.468
