Trigger_Date,2023/06/19
Trigger_Time,T 13:00:04.255 PDT
Samples_Per_Cycle,512
Microseconds_Per_Sample,32.570
Time (ms),Voltage (V),Current (A)
-16.68,-15.547,-0.493
-16.64,-14.529,-0.962
-16.61,-11.476,-1.604
-16.58,-16.249,-1.833
-16.55,-20.601,-1.363
-16.51,-23.338,-0.836
-16.48,-25.058,-0.733
-16.45,-27.304,-0.962
-16.42,-30.498,-1.604
-16.38,-34.955,-2.096
-16.35,-39.728,-2.497
-16.32,-44.36,-2.669
-16.28,-48.291,-2.577
-16.25,-51.625,-2.577
-16.22,-54.608,-2.738
-16.19,-57.626,-2.956
-16.15,-60.68,-3.162
-16.12,-63.873,-3.391
-16.09,-67.242,-3.574
-16.06,-70.401,-3.712
-16.02,-73.489,-3.826
-15.99,-76.543,-4.044
-15.96,-79.666,-4.284
-15.93,-82.965,-4.399
-15.89,-86.299,-4.72
-15.86,-89.774,-4.983
-15.83,-92.932,-5.04
-15.8,-95.529,-5.258
-15.76,-98.267,-5.625
-15.73,-100.969,-5.854
-15.7,-103.847,-6.186
-15.67,-106.9,-6.472
-15.63,-109.813,-6.724
-15.6,-112.796,-7.137
-15.57,-115.955,-7.492
-15.54,-119.043,-7.698
-15.5,-121.991,-7.973
-15.47,-124.834,-8.294
-15.44,-127.852,-8.626
-15.41,-130.94,-8.912
-15.37,-134.064,-9.302
-15.34,-137.187,-9.508
-15.31,-140.065,-9.749
-15.28,-143.048,-10.161
-15.24,-146.031,-10.459
-15.21,-149.049,-10.86
-15.18,-152.032,-11.261
-15.14,-154.98,-11.547
-15.11,-157.928,-11.902
-15.08,-160.841,-12.154
-15.05,-163.719,-12.429
-15.01,-166.457,-12.647
-14.98,-169.299,-12.956
-14.95,-172.037,-13.174
-14.92,-174.599,-13.288
-14.88,-177.301,-13.747
-14.85,-180.214,-14.056
-14.82,-182.846,-14.182
-14.79,-185.443,-14.434
-14.75,-188.04,-14.617
-14.72,-190.392,-14.686
-14.69,-192.673,-14.904
-14.66,-195.059,-15.156
-14.62,-197.305,-15.19
-14.59,-199.516,-15.408
-14.56,-201.868,-15.637
-14.53,-204.044,-15.591
-14.49,-205.974,-15.728
-14.46,-208.009,-15.877
-14.43,-210.01,-15.9
-14.4,-211.905,-16.118
-14.36,-213.835,-16.278
-14.33,-215.871,-16.404
-14.3,-217.871,-16.507
-14.27,-219.696,-16.656
-14.23,-221.346,-16.84
-14.2,-223.03,-17.023
-14.17,-225.031,-17.126
-14.14,-226.75,-17.218
-14.1,-228.47,-17.332
-14.07,-230.19,-17.538
-14.04,-231.944,-17.756
-14.01,-233.594,-17.905
-13.97,-235.103,-18.111
-13.94,-236.542,-18.214
-13.91,-238.121,-18.398
-13.87,-239.911,-18.65
-13.84,-241.595,-18.707
-13.81,-243.14,-18.97
-13.78,-244.403,-19.131
-13.74,-245.596,-19.177
-13.71,-246.965,-19.452
-13.68,-248.544,-19.543
-13.65,-249.843,-19.612
-13.61,-251.106,-19.921
-13.58,-252.51,-20.104
-13.55,-254.019,-20.23
-13.52,-255.283,-20.494
-13.48,-256.546,-20.666
-13.45,-257.669,-20.769
-13.42,-258.652,-20.861
-13.39,-259.74,-21.055
-13.35,-260.898,-21.25
-13.32,-262.056,-21.376
-13.29,-263.319,-21.582
-13.26,-264.442,-21.788
-13.22,-265.636,-21.995
-13.19,-266.829,-22.109
-13.16,-267.776,-22.292
-13.13,-268.759,-22.51
-13.09,-269.917,-22.705
-13.06,-271.146,-22.968
-13.03,-272.339,-23.14
-13.0,-273.286,-23.381
-12.96,-274.164,-23.553
-12.93,-274.971,-23.587
-12.9,-275.813,-23.793
-12.87,-276.585,-24.034
-12.83,-277.463,-24.011
-12.8,-278.235,-24.022
-12.77,-278.796,-24.08
-12.73,-279.463,-24.24
-12.7,-280.165,-24.297
-12.67,-280.656,-24.354
-12.64,-281.007,-24.469
-12.6,-281.218,-24.412
-12.57,-281.604,-24.503
-12.54,-282.095,-24.526
-12.51,-282.411,-24.4
-12.47,-282.516,-24.435
-12.44,-282.587,-24.389
-12.41,-282.552,-24.309
-12.38,-282.306,-24.183
-12.34,-281.885,-23.976
-12.31,-281.604,-23.885
-12.28,-281.464,-23.885
-12.25,-281.288,-23.828
-12.21,-280.972,-23.69
-12.18,-280.376,-23.53
-12.15,-279.498,-23.255
-12.12,-278.796,-23.255
-12.08,-278.13,-23.129
-12.05,-277.287,-22.797
-12.02,-276.515,-22.785
-11.99,-275.743,-22.59
-11.95,-274.76,-22.27
-11.92,-273.532,-22.132
-11.89,-272.163,-21.869
-11.86,-270.83,-21.662
-11.82,-269.672,-21.502
-11.79,-268.408,-21.284
-11.76,-267.11,-21.204
-11.73,-265.706,-21.055
-11.69,-264.372,-20.872
-11.66,-263.039,-20.872
-11.63,-261.53,-20.609
-11.59,-259.845,-20.46
-11.56,-258.16,-20.391
-11.53,-256.651,-20.162
-11.5,-255.247,-20.024
-11.46,-253.633,-19.875
-11.43,-251.843,-19.566
-11.4,-250.089,-19.532
-11.37,-248.439,-19.44
-11.33,-246.579,-19.268
-11.3,-244.684,-19.142
-11.27,-242.929,-19.142
-11.24,-241.209,-19.062
-11.2,-239.349,-19.005
-11.17,-237.665,-19.142
-11.14,-236.05,-18.947
-11.11,-234.225,-18.741
-11.07,-232.436,-18.73
-11.04,-230.576,-18.558
-11.01,-228.505,-18.512
-10.98,-226.364,-18.352
-10.94,-224.329,-18.295
-10.91,-222.574,-18.352
-10.88,-220.679,-18.1
-10.85,-218.468,-17.951
-10.81,-216.432,-18.042
-10.78,-214.537,-17.882
-10.75,-212.431,-17.871
-10.72,-210.431,-17.745
-10.68,-208.571,-17.584
-10.65,-206.641,-17.538
-10.62,-204.359,-17.309
-10.59,-202.078,-17.321
-10.55,-199.797,-17.092
-10.52,-197.797,-16.966
-10.49,-195.972,-17.011
-10.45,-194.041,-16.828
-10.42,-191.69,-16.782
-10.39,-189.549,-16.828
-10.36,-187.514,-16.748
-10.32,-185.443,-16.588
-10.29,-183.302,-16.53
-10.26,-181.056,-16.37
-10.23,-178.529,-16.152
-10.19,-176.318,-16.141
-10.16,-174.107,-15.98
-10.13,-171.686,-15.706
-10.1,-169.229,-15.545
-10.06,-166.772,-15.224
-10.03,-164.281,-14.961
-10.0,-161.613,-14.743
-9.97,-158.946,-14.423
-9.93,-156.49,-14.251
-9.9,-153.998,-14.113
-9.87,-151.295,-13.77
-9.84,-148.418,-13.518
-9.8,-145.68,-13.334
-9.77,-142.943,-12.933
-9.74,-139.995,-12.693
-9.71,-137.187,-12.464
-9.67,-134.309,-12.166
-9.64,-131.572,-11.971
-9.61,-128.764,-11.593
-9.58,-125.816,-11.215
-9.54,-122.552,-10.929
-9.51,-119.254,-10.585
-9.48,-115.884,-10.31
-9.45,-112.901,-9.955
-9.41,-109.883,-9.531
-9.38,-106.689,-9.096
-9.35,-103.285,-8.718
-9.31,-99.811,-8.363
-9.28,-96.231,-7.973
-9.25,-92.686,-7.549
-9.22,-89.177,-7.171
-9.18,-85.667,-6.747
-9.15,-82.088,-6.346
-9.12,-78.613,-5.888
-9.09,-75.104,-5.51
-9.05,-71.524,-5.304
-9.02,-68.05,-5.052
-8.99,-64.435,-4.708
-8.96,-60.925,-4.445
-8.92,-57.697,-4.284
-8.89,-54.433,-3.906
-8.86,-50.888,-3.677
-8.83,-47.343,-3.528
-8.79,-43.974,-3.276
-8.76,-40.43,-3.001
-8.73,-37.376,-2.795
-8.7,-38.78,-1.821
-8.66,-43.939,-0.057
-8.63,-38.57,1.409
-8.6,-28.568,0.882
-8.57,-25.409,0.206
-8.53,-23.654,0.355
-8.5,-18.039,1.18
-8.47,-6.387,1.558
-8.44,4.282,1.146
-8.4,10.529,0.47
-8.37,13.301,0.573
-8.34,18.951,0.515
-8.31,15.863,0.962
-8.27,12.389,1.821
-8.24,18.179,2.119
-8.21,22.18,1.627
-8.18,24.883,0.722
-8.14,26.041,0.642
-8.11,28.006,0.962
-8.08,30.919,1.661
-8.04,35.516,2.257
-8.01,40.43,2.52
-7.98,45.062,2.543
-7.95,48.572,2.543
-7.91,51.765,2.543
-7.88,54.643,2.749
-7.85,57.661,2.91
-7.82,60.75,3.127
-7.78,64.014,3.391
-7.75,67.278,3.528
-7.72,70.471,3.7
-7.69,73.56,3.849
-7.65,76.683,3.975
-7.62,79.877,4.181
-7.59,83.105,4.422
-7.56,86.264,4.662
-7.52,89.598,4.892
-7.49,92.792,5.052
-7.46,95.705,5.235
-7.43,98.267,5.487
-7.39,100.934,5.819
-7.36,103.882,6.175
-7.33,106.9,6.507
-7.3,109.918,6.782
-7.26,112.901,7.091
-7.23,116.06,7.503
-7.2,119.324,7.836
-7.17,122.342,8.145
-7.13,125.36,8.534
-7.1,128.554,8.821
-7.07,131.572,9.21
-7.04,134.731,9.68
-7.0,137.784,10.047
-6.97,140.767,10.31
-6.94,143.715,10.573
-6.9,146.558,10.883
-6.87,149.576,11.089
-6.84,152.524,11.261
-6.81,155.507,11.616
-6.77,158.49,11.879
-6.74,161.333,12.177
-6.71,164.07,12.487
-6.68,166.843,12.693
-6.64,169.65,12.876
-6.61,172.388,13.14
-6.58,175.336,13.609
-6.55,178.529,14.067
-6.51,181.793,14.388
-6.48,184.846,14.801
-6.45,187.514,15.064
-6.42,190.076,15.362
-6.38,192.673,15.637
-6.35,195.059,15.637
-6.32,197.305,15.797
-6.29,199.516,15.969
-6.25,201.622,15.832
-6.22,203.658,15.854
-6.19,205.553,15.832
-6.16,207.202,15.614
-6.12,208.711,15.58
-6.09,210.291,15.476
-6.06,211.729,15.385
-6.03,213.379,15.465
-5.99,215.169,15.499
-5.96,216.783,15.465
-5.93,218.257,15.648
-5.9,219.872,15.832
-5.86,221.451,15.832
-5.83,223.135,16.026
-5.8,224.82,16.187
-5.76,226.294,16.347
-5.73,227.908,16.645
-5.7,229.698,16.977
-5.67,231.699,17.286
-5.63,233.418,17.516
-5.6,234.822,17.756
-5.57,236.436,18.077
-5.54,238.297,18.455
-5.5,239.911,18.501
-5.47,241.174,18.581
-5.44,242.754,19.028
-5.41,244.438,19.096
-5.37,245.667,19.165
-5.34,246.895,19.543
-5.31,248.439,19.646
-5.28,249.878,19.749
-5.24,251.141,20.082
-5.21,252.65,20.345
-5.18,254.23,20.563
-5.15,255.634,20.803
-5.11,256.932,20.952
-5.08,258.02,21.147
-5.05,259.319,21.296
-5.02,260.652,21.422
-4.98,261.67,21.502
-4.95,262.617,21.685
-4.92,263.846,21.96
-4.89,265.355,22.189
-4.85,266.689,22.338
-4.82,267.706,22.522
-4.79,268.619,22.751
-4.76,269.707,22.911
-4.72,270.9,23.049
-4.69,272.058,23.197
-4.66,273.041,23.358
-4.62,274.129,23.553
-4.59,275.146,23.633
-4.56,275.989,23.782
-4.53,276.585,24.034
-4.49,277.287,24.125
-4.46,278.059,24.194
-4.43,278.796,24.446
-4.4,279.533,24.458
-4.36,280.2,24.4
-4.33,280.762,24.481
-4.3,281.358,24.607
-4.27,281.779,24.526
-4.23,281.885,24.446
-4.2,282.376,24.572
-4.17,282.973,24.675
-4.14,283.218,24.572
-4.1,282.622,24.366
-4.07,281.779,24.102
-4.04,281.183,23.736
-4.01,280.832,23.369
-3.97,280.341,22.98
-3.94,279.639,22.705
-3.91,278.972,22.625
-3.88,278.516,22.613
-3.84,278.094,22.545
-3.81,277.603,22.545
-3.78,277.287,22.648
-3.75,276.901,22.739
-3.71,276.55,22.911
-3.68,276.445,23.071
-3.65,276.27,23.094
-3.62,275.743,23.14
-3.58,274.901,23.209
-3.55,274.059,23.026
-3.52,273.041,22.819
-3.48,271.848,22.625
-3.45,270.795,22.419
-3.42,269.672,22.235
-3.39,268.408,22.018
-3.35,266.829,21.708
-3.32,265.215,21.502
-3.29,263.811,21.227
-3.26,262.126,20.929
-3.22,260.442,20.712
-3.19,258.792,20.402
-3.16,257.108,20.127
-3.13,255.318,19.864
-3.09,253.458,19.635
-3.06,251.527,19.417
-3.03,249.597,19.268
-3.0,247.702,19.165
-2.96,245.596,18.833
-2.93,243.456,18.65
-2.9,241.595,18.604
-2.87,239.735,18.352
-2.83,237.665,18.203
-2.8,235.594,18.214
-2.77,233.594,18.02
-2.74,231.488,17.871
-2.7,229.593,17.974
-2.67,227.873,17.836
-2.64,225.978,17.722
-2.61,223.907,17.745
-2.57,221.837,17.63
-2.54,219.696,17.573
-2.51,217.59,17.55
-2.48,215.555,17.447
-2.44,213.625,17.355
-2.41,211.694,17.458
-2.38,209.659,17.321
-2.35,207.623,17.321
-2.31,205.833,17.493
-2.28,203.973,17.241
-2.25,201.833,17.195
-2.21,199.692,17.298
-2.18,197.446,17.046
-2.15,195.41,17.011
-2.12,193.62,17.069
-2.08,191.725,16.828
-2.05,189.69,16.782
-2.02,187.759,16.817
-1.99,185.478,16.53
-1.95,183.092,16.645
-1.92,180.916,16.588
-1.89,178.67,16.347
-1.86,176.599,16.29
-1.82,174.493,16.129
-1.79,172.107,15.866
-1.76,169.685,15.751
-1.73,167.264,15.58
-1.69,164.772,15.339
-1.66,162.14,14.949
-1.63,159.543,14.778
-1.6,156.911,14.514
-1.56,154.349,14.319
-1.53,151.822,14.159
-1.5,149.33,13.838
-1.47,146.698,13.632
-1.43,143.82,13.392
-1.4,140.942,12.956
-1.37,138.029,12.704
-1.34,135.081,12.441
-1.3,132.239,12.154
-1.27,129.466,11.845
-1.24,126.553,11.467
-1.21,123.5,11.112
-1.17,120.131,10.688
-1.14,116.656,10.31
-1.11,113.463,10.035
-1.07,110.339,9.703
-1.04,107.076,9.336
-1.01,103.671,8.878
-0.98,100.267,8.5
-0.94,96.758,8.156
-0.91,93.213,7.606
-0.88,89.633,7.217
-0.85,85.983,6.805
-0.81,82.439,6.461
-0.78,79.105,6.152
-0.75,75.595,5.67
-0.72,71.875,5.407
-0.68,68.401,5.178
-0.65,65.067,4.857
-0.62,61.662,4.548
-0.59,58.258,4.296
-0.55,54.749,3.987
-0.52,51.309,3.746
-0.49,47.835,3.551
-0.46,44.431,3.322
-0.42,40.921,3.196
-0.39,37.903,2.967
-0.36,37.657,2.245
-0.33,42.676,0.928
-0.29,42.921,-0.916
-0.26,33.27,-1.375
-0.23,25.655,-0.699
-0.2,22.461,-0.344
-0.16,18.706,-0.871
-0.13,9.125,-1.512
-0.1,-2.597,-1.455
-0.07,-11.371,-0.79
-0.03,-14.705,-0.447
0.0,-18.46,-0.458
0.03,-17.442,-0.722
0.07,-13.477,-1.546
0.1,-17.793,-2.073
0.13,-22.672,-1.753
0.16,-25.76,-1.168
0.2,-27.374,-0.859
0.23,-29.129,-1.008
0.26,-31.761,-1.604
0.29,-35.902,-2.28
0.33,-40.605,-2.6
0.36,-45.062,-2.669
0.39,-48.853,-2.635
0.42,-52.011,-2.6
0.46,-54.959,-2.738
0.49,-57.942,-2.933
0.52,-61.136,-3.208
0.55,-64.47,-3.46
0.59,-67.839,-3.631
0.62,-71.208,-3.757
0.65,-74.402,-3.883
0.68,-77.525,-4.032
0.72,-80.579,-4.204
0.75,-83.737,-4.365
0.78,-86.755,-4.582
0.81,-89.949,-4.766
0.85,-92.932,-4.914
0.88,-95.845,-5.132
0.91,-98.477,-5.292
0.94,-101.004,-5.43
0.98,-103.636,-5.67
1.01,-106.549,-6.014
1.04,-109.673,-6.346
1.07,-112.726,-6.724
1.11,-115.709,-7.068
1.14,-118.762,-7.515
1.17,-121.851,-8.007
1.21,-125.079,-8.363
1.24,-128.343,-8.615
1.27,-131.467,-8.947
1.3,-134.555,-9.348
1.34,-137.503,-9.68
1.37,-140.451,-10.047
1.4,-143.504,-10.413
1.43,-146.663,-10.642
1.47,-149.681,-10.963
1.5,-152.454,-11.261
1.53,-155.367,-11.559
1.56,-158.244,-11.948
1.6,-161.192,-12.189
1.63,-163.965,-12.429
1.66,-166.772,-12.739
1.69,-169.545,-12.899
1.73,-172.177,-13.105
1.76,-174.915,-13.414
1.79,-177.687,-13.609
1.82,-180.565,-13.838
1.86,-183.232,-14.102
1.89,-185.689,-14.285
1.92,-188.181,-14.583
1.95,-190.532,-14.869
1.99,-192.848,-14.927
2.02,-195.164,-15.041
2.05,-197.551,-15.224
2.08,-199.832,-15.305
2.12,-201.938,-15.419
2.15,-203.973,-15.602
2.18,-205.904,-15.66
2.21,-207.799,-15.706
2.25,-209.834,-15.946
2.28,-211.8,-16.026
2.31,-213.8,-16.141
2.35,-215.871,-16.255
2.38,-217.696,-16.324
2.41,-219.415,-16.565
2.44,-220.995,-16.656
2.48,-222.574,-16.725
2.51,-224.294,-17.0
2.54,-226.083,-17.011
2.57,-227.803,-17.149
2.61,-229.558,-17.458
2.64,-231.277,-17.538
2.67,-232.997,-17.813
2.7,-234.682,-18.077
2.74,-236.261,-18.065
2.77,-237.77,-18.26
2.8,-239.244,-18.558
2.83,-240.718,-18.673
2.87,-242.297,-18.959
2.9,-244.017,-19.199
2.93,-245.386,-19.154
2.96,-246.614,-19.348
3.0,-247.983,-19.612
3.03,-249.457,-19.726
3.06,-250.931,-20.047
3.09,-252.44,-20.288
3.13,-253.879,-20.448
3.16,-255.072,-20.597
3.19,-256.23,-20.872
3.22,-257.388,-20.941
3.26,-258.546,-20.987
3.29,-259.74,-21.204
3.32,-260.898,-21.33
3.35,-261.916,-21.422
3.39,-262.968,-21.605
3.42,-264.302,-21.8
3.45,-265.601,-21.926
3.48,-266.689,-22.132
3.52,-267.706,-22.419
3.55,-268.829,-22.567
3.58,-269.812,-22.739
3.62,-270.9,-23.106
3.65,-272.128,-23.392
3.68,-273.216,-23.53
3.71,-274.059,-23.69
3.75,-275.076,-23.828
3.78,-276.059,-23.862
3.81,-276.515,-23.816
3.84,-276.866,-24.057
3.88,-277.814,-24.263
3.91,-279.007,-24.274
3.94,-279.428,-24.08
3.97,-279.639,-24.091
4.01,-280.305,-24.354
4.04,-280.867,-24.332
4.07,-281.007,-24.228
4.1,-281.218,-24.366
4.14,-281.779,-24.423
4.17,-282.341,-24.458
4.2,-282.376,-24.446
4.23,-282.236,-24.423
4.27,-282.306,-24.458
4.3,-282.306,-24.343
4.33,-282.13,-24.16
4.36,-281.885,-24.102
4.4,-281.779,-24.034
4.43,-281.639,-23.908
4.46,-281.288,-23.862
4.49,-280.551,-23.747
4.53,-279.884,-23.53
4.56,-279.288,-23.415
4.59,-278.375,-23.106
4.62,-277.533,-22.991
4.66,-276.796,-22.854
4.69,-275.919,-22.625
4.72,-274.796,-22.579
4.76,-273.637,-22.292
4.79,-272.339,-22.052
4.82,-271.075,-21.869
4.85,-269.742,-21.571
4.89,-268.373,-21.399
4.92,-267.145,-21.25
4.95,-266.022,-21.078
4.98,-264.723,-20.872
5.02,-263.179,-20.7
5.05,-261.459,-20.483
5.08,-259.74,-20.322
5.11,-258.266,-20.15
5.15,-256.757,-19.944
5.18,-255.107,-19.875
5.21,-253.387,-19.83
5.24,-251.808,-19.738
5.28,-250.124,-19.6
5.31,-248.264,-19.486
5.34,-246.439,-19.348
5.37,-244.649,-19.211
5.41,-242.894,-19.108
5.44,-241.174,-18.959
5.47,-239.384,-18.821
5.5,-237.489,-18.707
5.54,-235.524,-18.695
5.57,-233.629,-18.673
5.6,-231.734,-18.524
5.63,-229.874,-18.478
5.67,-227.908,-18.512
5.7,-226.118,-18.306
5.73,-224.188,-18.203
5.76,-222.223,-18.214
5.8,-220.222,-18.077
5.83,-218.292,-17.905
5.86,-216.257,-17.848
5.9,-214.186,-17.871
5.93,-212.115,-17.825
5.96,-210.115,-17.733
5.99,-208.185,-17.745
6.03,-206.29,-17.493
6.06,-204.149,-17.298
6.09,-202.078,-17.264
6.12,-199.797,-17.126
6.16,-197.516,-17.057
6.19,-195.656,-17.126
6.22,-193.796,-16.931
6.25,-191.479,-16.725
6.29,-189.268,-16.828
6.32,-187.128,-16.633
6.35,-184.952,-16.485
6.38,-182.741,-16.393
6.42,-180.46,-16.164
6.45,-178.214,-16.061
6.48,-176.213,-16.049
6.51,-174.072,-15.877
6.55,-171.616,-15.854
6.58,-169.264,-15.763
6.61,-166.667,-15.431
6.64,-164.035,-15.27
6.68,-161.543,-14.927
6.71,-158.911,-14.526
6.74,-156.7,-14.411
6.77,-154.279,-14.136
6.81,-151.295,-13.678
6.84,-148.207,-13.54
6.87,-145.47,-13.357
6.9,-142.978,-13.071
6.94,-140.311,-12.761
6.97,-137.363,-12.464
7.0,-134.239,-12.223
7.04,-131.467,-12.04
7.07,-128.799,-11.719
7.1,-125.816,-11.33
7.13,-122.763,-11.032
7.17,-119.499,-10.711
7.2,-116.341,-10.436
7.23,-113.463,-10.081
7.26,-110.41,-9.726
7.3,-107.04,-9.416
7.33,-103.566,-9.05
7.36,-100.162,-8.626
7.39,-96.722,-8.271
7.43,-93.178,-7.767
7.46,-89.668,-7.228
7.49,-85.983,-6.873
7.52,-82.439,-6.369
7.56,-78.929,-5.9
7.59,-75.314,-5.648
7.62,-71.77,-5.315
7.65,-68.225,-4.96
7.69,-64.68,-4.617
7.72,-61.241,-4.365
7.75,-57.942,-4.204
7.78,-54.468,-3.906
7.82,-50.923,-3.643
7.85,-47.484,-3.505
7.88,-44.115,-3.219
7.91,-40.535,-3.093
7.95,-37.166,-2.818
7.98,-37.376,-1.959
8.01,-43.062,-0.412
8.04,-39.798,1.306
8.08,-29.059,1.134
8.11,-24.181,0.332
8.14,-22.461,0.275
8.18,-18.074,1.02
8.21,-6.984,1.535
8.24,4.001,1.237
8.27,11.055,0.515
8.31,13.512,0.493
8.34,18.636,0.458
8.37,16.565,0.928
8.4,12.073,1.993
8.44,17.793,2.234
8.47,22.25,1.741
8.5,25.304,0.882
8.53,26.567,0.687
8.57,28.462,0.916
8.6,31.27,1.558
8.63,35.551,2.199
8.66,40.079,2.463
8.7,44.466,2.463
8.73,47.94,2.451
8.76,51.028,2.406
8.79,53.696,2.474
8.83,56.714,2.772
8.86,59.908,3.047
8.89,63.417,3.311
8.92,66.962,3.551
8.96,70.471,3.723
8.99,73.946,3.895
9.02,77.315,4.101
9.05,80.684,4.307
9.09,83.983,4.525
9.12,87.177,4.754
9.15,90.265,4.972
9.18,93.073,5.201
9.22,95.599,5.418
9.25,98.196,5.762
9.28,101.144,6.106
9.31,104.128,6.358
9.35,107.181,6.656
9.38,110.234,6.885
9.41,113.252,7.228
9.45,116.516,7.664
9.48,119.71,7.893
9.51,122.588,8.214
9.54,125.43,8.523
9.58,128.448,8.809
9.61,131.537,9.061
9.64,134.695,9.474
9.67,137.854,9.886
9.71,140.837,10.127
9.74,143.715,10.482
9.77,146.698,10.814
9.8,149.646,11.078
9.84,152.559,11.398
9.87,155.647,11.719
9.9,158.56,11.822
9.93,161.368,12.028
9.97,164.035,12.487
10.0,166.667,12.693
10.03,169.334,12.922
10.06,172.247,13.323
10.1,175.23,13.449
10.13,178.073,13.735
10.16,180.986,14.239
10.19,183.829,14.319
10.23,186.32,14.571
10.26,188.847,14.938
10.29,191.269,14.915
10.32,193.34,15.121
10.36,195.761,15.465
10.39,198.077,15.385
10.42,200.183,15.408
10.45,202.219,15.58
10.49,204.149,15.442
10.52,205.869,15.454
10.55,207.588,15.568
10.59,209.413,15.58
10.62,211.414,15.671
10.65,213.449,15.843
10.68,215.239,15.854
10.72,216.888,15.935
10.75,218.573,16.21
10.78,220.258,16.233
10.81,221.942,16.347
10.85,223.732,16.691
10.88,225.522,16.874
10.91,227.312,17.034
10.94,229.102,17.286
10.98,230.856,17.458
11.01,232.506,17.642
11.04,234.155,17.882
11.07,235.629,17.997
11.11,236.998,18.168
11.14,238.647,18.478
11.17,240.332,18.638
11.2,241.946,18.89
11.24,243.385,19.199
11.27,244.824,19.268
11.3,246.123,19.474
11.33,247.491,19.623
11.37,248.72,19.704
11.4,250.124,20.036
11.43,251.738,20.15
11.46,253.177,20.299
11.5,254.581,20.563
11.53,255.984,20.826
11.56,257.178,20.987
11.59,258.231,21.181
11.63,259.389,21.456
11.66,260.582,21.559
11.69,261.775,21.628
11.73,262.898,21.8
11.76,264.091,21.949
11.79,265.32,22.155
11.82,266.583,22.419
11.86,267.741,22.476
11.89,268.619,22.682
11.92,269.637,22.991
11.95,270.865,23.106
11.99,271.953,23.312
12.02,273.006,23.541
12.05,273.918,23.724
12.08,274.796,23.908
12.12,275.673,23.999
12.15,276.41,24.022
12.18,277.217,24.011
12.21,278.094,24.057
12.25,278.937,24.263
12.28,279.533,24.286
12.31,279.919,24.412
12.34,280.27,24.526
12.38,280.867,24.526
12.41,281.464,24.618
12.44,281.85,24.595
12.47,281.99,24.607
12.51,282.411,24.801
12.54,282.797,24.698
12.57,282.797,24.549
12.6,282.516,24.435
12.64,282.095,24.171
12.67,281.534,23.999
12.7,281.323,23.999
12.73,281.429,23.908
12.77,281.253,23.782
12.8,280.867,23.77
12.83,280.27,23.69
12.87,279.99,23.61
12.9,279.709,23.576
12.93,279.147,23.495
12.96,278.375,23.335
13.0,277.708,23.312
13.03,277.042,23.209
13.06,276.164,23.026
13.09,275.111,22.888
13.13,273.813,22.648
13.16,272.479,22.281
13.19,271.111,22.018
13.22,269.707,21.743
13.26,268.303,21.514
13.29,267.004,21.261
13.32,265.671,20.987
13.35,264.267,20.792
13.39,262.582,20.586
13.42,260.757,20.368
13.45,259.003,20.334
13.48,257.458,20.208
13.52,255.774,19.99
13.55,254.089,19.978
13.58,252.405,19.738
13.61,250.545,19.463
13.65,248.825,19.406
13.68,246.965,19.177
13.71,244.93,18.902
13.74,243.069,18.902
13.78,241.28,18.856
13.81,239.174,18.547
13.84,237.173,18.604
13.87,235.349,18.73
