Trigger_Date,2023/06/22
Trigger_Time,T 14:13:12.755 PDT
Samples_Per_Cycle,512
Microseconds_Per_Sample,32.549
Time (ms),Voltage (V),Current (A)
-16.67,0.316,-0.115
-16.63,0.491,1.146
-16.6,1.088,2.36
-16.57,4.352,3.345
-16.54,9.37,4.284
-16.5,14.319,5.384
-16.47,18.671,6.049
-16.44,22.461,6.427
-16.4,26.637,6.896
-16.37,31.059,7.343
-16.34,35.341,7.595
-16.31,38.85,7.755
-16.27,42.079,8.007
-16.24,45.378,8.351
-16.21,48.853,8.637
-16.18,52.046,8.89
-16.14,54.713,9.336
-16.11,57.556,9.863
-16.08,61.066,10.299
-16.05,64.891,10.654
-16.01,68.716,11.02
-15.98,72.226,11.421
-15.95,75.209,11.753
-15.92,77.806,12.086
-15.88,80.719,12.567
-15.85,84.334,13.059
-15.82,87.949,13.449
-15.79,91.037,13.815
-15.75,93.774,14.319
-15.72,96.722,14.869
-15.69,99.986,15.305
-15.66,103.461,15.683
-15.62,106.83,16.21
-15.59,110.304,16.737
-15.56,113.708,17.08
-15.53,116.797,17.504
-15.49,119.85,17.974
-15.46,123.009,18.363
-15.43,126.132,18.833
-15.4,129.361,19.314
-15.36,133.081,19.818
-15.33,136.731,20.173
-15.3,139.468,20.437
-15.27,142.381,21.158
-15.23,145.75,21.399
-15.2,148.874,21.8
-15.17,151.366,22.029
-15.14,153.085,22.178
-15.1,154.98,22.728
-15.07,158.279,23.197
-15.04,161.929,23.495
-15.01,164.877,23.828
-14.97,167.299,24.274
-14.94,170.036,24.652
-14.91,173.055,24.939
-14.88,175.967,25.179
-14.84,178.775,25.58
-14.81,181.618,26.05
-14.78,184.25,26.405
-14.74,186.391,26.554
-14.71,187.654,26.485
-14.68,187.935,26.187
-14.65,188.075,26.061
-14.61,189.304,26.359
-14.58,191.866,26.817
-14.55,194.849,27.241
-14.52,197.411,27.78
-14.48,199.762,28.49
-14.45,202.464,29.109
-14.42,205.237,29.521
-14.39,208.115,29.979
-14.35,210.992,30.506
-14.32,214.046,30.953
-14.29,216.783,31.228
-14.26,219.029,31.434
-14.22,221.03,31.686
-14.19,223.1,31.801
-14.16,224.118,31.709
-14.13,224.539,31.766
-14.09,225.381,31.972
-14.06,226.75,32.385
-14.03,228.575,32.797
-14.0,229.663,33.072
-13.96,231.067,33.702
-13.93,233.804,34.16
-13.9,235.945,34.16
-13.87,236.787,34.401
-13.83,237.981,34.848
-13.8,240.262,35.191
-13.77,242.859,35.237
-13.74,244.228,35.478
-13.7,245.175,36.062
-13.67,246.684,36.417
-13.64,248.615,36.452
-13.61,250.79,36.566
-13.57,253.001,36.852
-13.54,254.475,37.093
-13.51,255.493,37.368
-13.48,257.213,37.7
-13.44,259.424,37.975
-13.41,261.389,38.113
-13.38,262.617,38.113
-13.35,263.425,38.17
-13.31,264.548,38.296
-13.28,265.846,38.33
-13.25,266.864,38.262
-13.22,267.671,38.456
-13.18,269.215,38.743
-13.15,270.444,38.743
-13.12,271.391,39.121
-13.08,271.918,39.545
-13.05,271.567,40.335
-13.02,272.269,41.034
-12.99,273.637,41.274
-12.95,274.374,41.435
-12.92,275.041,42.134
-12.89,276.585,42.477
-12.86,277.919,42.34
-12.82,278.551,42.145
-12.79,278.972,42.294
-12.76,280.06,42.397
-12.73,281.183,42.248
-12.69,282.025,42.305
-12.66,282.587,42.397
-12.63,283.043,42.557
-12.6,283.394,42.271
-12.56,283.604,42.225
-12.53,284.131,42.351
-12.5,284.727,42.179
-12.47,284.973,42.386
-12.43,285.605,42.626
-12.4,286.096,42.58
-12.37,286.131,42.512
-12.34,286.061,42.363
-12.3,285.219,42.099
-12.27,283.92,41.881
-12.24,283.359,41.778
-12.21,283.78,41.79
-12.17,283.885,41.698
-12.14,283.008,41.549
-12.11,281.464,41.297
-12.08,278.796,41.332
-12.04,277.498,41.446
-12.01,277.568,41.045
-11.98,276.901,40.862
-11.95,275.497,41.171
-11.91,274.445,41.24
-11.88,273.392,40.896
-11.85,271.707,40.724
-11.82,270.549,40.507
-11.78,269.672,39.945
-11.75,268.338,39.464
-11.72,266.408,39.373
-11.69,265.109,39.35
-11.65,264.337,39.052
-11.62,263.214,38.903
-11.59,261.845,38.857
-11.56,260.336,38.628
-11.52,258.617,38.307
-11.49,256.792,38.09
-11.46,255.528,37.895
-11.42,254.054,37.666
-11.39,252.159,37.586
-11.36,250.79,37.437
-11.33,249.281,37.059
-11.29,247.316,36.658
-11.26,245.526,36.303
-11.23,244.228,35.936
-11.2,242.964,35.558
-11.16,241.034,35.088
-11.13,238.718,34.917
-11.1,237.103,34.836
-11.07,235.77,34.412
-11.03,233.559,34.0
-11.0,230.856,33.886
-10.97,228.786,33.771
-10.94,227.347,33.427
-10.9,226.048,33.221
-10.87,224.399,33.049
-10.84,222.293,32.969
-10.81,220.854,32.889
-10.77,219.801,32.488
-10.74,217.941,32.064
-10.71,215.836,31.858
-10.68,214.256,31.606
-10.64,213.028,31.239
-10.61,211.694,30.804
-10.58,208.922,30.22
-10.55,205.588,29.83
-10.51,202.991,29.303
-10.48,201.166,28.65
-10.45,199.236,28.169
-10.42,196.919,27.848
-10.38,194.568,27.7
-10.35,192.778,27.608
-10.32,190.848,27.092
-10.29,188.847,26.806
-10.25,187.163,26.485
-10.22,185.197,26.199
-10.19,182.53,25.443
-10.16,179.196,24.996
-10.12,177.055,25.111
-10.09,175.897,24.847
-10.06,173.546,24.228
-10.03,169.194,23.507
-9.99,165.579,23.507
-9.96,164.281,23.22
-9.93,162.807,22.327
-9.89,159.718,21.777
-9.86,156.279,21.582
-9.83,153.612,21.055
-9.8,150.874,20.414
-9.76,147.751,19.658
-9.73,144.557,19.268
-9.7,141.434,18.615
-9.67,137.994,18.008
-9.63,134.836,18.042
-9.6,132.66,17.802
-9.57,130.624,17.401
-9.54,128.027,16.908
-9.5,124.834,16.462
-9.47,121.605,15.98
-9.44,118.657,15.316
-9.41,115.533,14.571
-9.37,112.164,14.033
-9.34,108.936,13.609
-9.31,105.707,13.048
-9.28,102.057,12.475
-9.24,98.232,11.902
-9.21,94.582,11.215
-9.18,90.862,10.505
-9.15,87.071,9.806
-9.11,82.93,9.233
-9.08,78.824,8.935
-9.05,75.525,8.546
-9.02,72.612,7.973
-8.98,69.559,7.503
-8.95,66.26,7.102
-8.92,62.75,6.633
-8.89,59.451,6.197
-8.85,56.398,5.819
-8.82,53.485,5.487
-8.79,50.467,5.144
-8.76,47.238,4.766
-8.72,43.799,4.307
-8.69,40.324,3.906
-8.66,37.131,3.494
-8.63,33.937,3.013
-8.59,30.392,2.589
-8.56,26.567,2.291
-8.53,22.952,1.89
-8.5,19.302,1.501
-8.46,15.266,1.157
-8.43,11.02,0.836
-8.4,6.387,0.47
-8.37,1.685,0.435
-8.33,-0.105,-0.069
-8.3,-0.351,-1.237
-8.27,-1.123,-2.497
-8.23,-4.562,-3.448
-8.2,-9.441,-4.307
-8.17,-14.038,-5.35
-8.14,-18.039,-6.152
-8.1,-22.25,-6.736
-8.07,-27.234,-7.114
-8.04,-32.007,-7.354
-8.01,-35.657,-7.412
-7.97,-38.219,-7.446
-7.94,-40.816,-7.698
-7.91,-44.15,-8.007
-7.88,-47.519,-8.305
-7.84,-50.572,-8.637
-7.81,-53.906,-9.05
-7.78,-57.381,-9.416
-7.75,-60.645,-9.852
-7.71,-63.908,-10.367
-7.68,-67.348,-10.86
-7.65,-70.892,-11.318
-7.62,-74.051,-11.788
-7.58,-77.034,-12.223
-7.55,-80.228,-12.761
-7.52,-83.842,-13.3
-7.49,-87.387,-13.815
-7.45,-90.686,-14.308
-7.42,-93.845,-14.697
-7.39,-97.038,-15.041
-7.36,-100.056,-15.35
-7.32,-103.004,-15.74
-7.29,-106.268,-16.198
-7.26,-109.497,-16.633
-7.23,-112.726,-17.149
-7.19,-116.095,-17.653
-7.16,-119.218,-18.077
-7.13,-122.272,-18.535
-7.1,-125.536,-19.028
-7.06,-128.87,-19.52
-7.03,-132.309,-19.99
-7.0,-136.099,-20.494
-6.97,-139.96,-21.17
-6.93,-143.61,-21.422
-6.9,-146.066,-21.399
-6.87,-147.47,-21.41
-6.84,-150.137,-22.029
-6.8,-154.384,-22.579
-6.77,-157.964,-22.739
-6.74,-160.104,-23.06
-6.71,-162.28,-23.667
-6.67,-165.509,-24.194
-6.64,-168.668,-24.423
-6.61,-171.194,-24.721
-6.57,-173.476,-25.065
-6.54,-175.511,-25.294
-6.51,-177.722,-25.729
-6.48,-180.775,-26.348
-6.44,-184.109,-26.772
-6.41,-186.742,-27.081
-6.38,-189.093,-27.344
-6.35,-191.479,-27.562
-6.31,-193.726,-27.711
-6.28,-195.586,-27.826
-6.25,-197.446,-28.009
-6.22,-199.376,-28.375
-6.18,-201.552,-28.685
-6.15,-203.658,-28.776
-6.12,-204.921,-28.902
-6.09,-205.939,-29.177
-6.05,-207.132,-29.361
-6.02,-208.22,-29.647
-5.99,-210.01,-30.128
-5.96,-212.607,-30.598
-5.92,-214.677,-31.033
-5.89,-216.502,-31.56
-5.86,-218.503,-31.995
-5.83,-220.503,-32.339
-5.79,-222.363,-32.625
-5.76,-224.294,-33.015
-5.73,-226.505,-33.29
-5.7,-228.926,-33.427
-5.66,-231.102,-33.599
-5.63,-232.997,-33.92
-5.6,-234.752,-34.103
-5.57,-236.331,-34.241
-5.53,-237.419,-34.309
-5.5,-238.437,-34.607
-5.47,-240.332,-35.157
-5.44,-242.859,-35.684
-5.4,-244.965,-35.867
-5.37,-246.544,-35.97
-5.34,-248.123,-36.417
-5.31,-250.194,-36.646
-5.27,-251.738,-36.623
-5.24,-252.861,-36.864
-5.21,-254.616,-37.185
-5.18,-256.616,-37.311
-5.14,-258.336,-37.483
-5.11,-259.564,-37.826
-5.08,-260.863,-37.975
-5.05,-261.038,-38.101
-5.01,-260.301,-38.72
-4.98,-260.828,-39.361
-4.95,-263.004,-39.716
-4.91,-265.109,-40.152
-4.88,-266.057,-40.644
-4.85,-266.934,-41.08
-4.82,-268.408,-41.217
-4.78,-269.917,-41.286
-4.75,-271.251,-41.469
-4.72,-272.585,-41.618
-4.69,-273.848,-41.778
-4.65,-275.041,-42.145
-4.62,-276.761,-42.271
-4.59,-277.814,-42.271
-4.56,-278.235,-42.489
-4.52,-279.358,-42.305
-4.49,-279.779,-41.881
-4.46,-279.604,-41.813
-4.43,-279.919,-41.79
-4.39,-280.972,-41.778
-4.36,-281.674,-41.733
-4.33,-281.92,-41.939
-4.3,-282.271,-42.122
-4.26,-283.043,-42.374
-4.23,-283.78,-42.134
-4.2,-283.289,-41.939
-4.17,-283.359,-42.34
-4.13,-284.903,-42.34
-4.1,-285.605,-42.03
-4.07,-284.341,-42.512
-4.04,-283.148,-43.073
-4.0,-283.078,-42.935
-3.97,-283.008,-42.603
-3.94,-282.376,-42.557
-3.91,-281.779,-42.775
-3.87,-281.744,-42.89
-3.84,-281.815,-43.004
-3.81,-281.744,-43.016
-3.78,-281.323,-42.764
-3.74,-280.2,-42.363
-3.71,-278.656,-42.088
-3.68,-277.603,-41.79
-3.65,-276.971,-41.481
-3.61,-276.62,-41.4
-3.58,-275.708,-41.297
-3.55,-273.672,-41.171
-3.52,-271.953,-40.919
-3.48,-270.935,-40.358
-3.45,-269.461,-39.888
-3.42,-267.426,-39.648
-3.39,-265.741,-39.567
-3.35,-265.215,-39.51
-3.32,-265.039,-39.373
-3.29,-264.021,-39.258
-3.25,-262.372,-39.098
-3.22,-260.687,-38.617
-3.19,-259.073,-38.067
-3.16,-257.423,-37.712
-3.12,-255.844,-37.505
-3.09,-254.651,-37.173
-3.06,-253.282,-36.807
-3.03,-251.106,-36.726
-2.99,-248.965,-36.669
-2.96,-246.825,-36.383
-2.93,-244.93,-36.142
-2.9,-243.701,-35.959
-2.86,-242.508,-35.661
-2.83,-240.788,-35.547
-2.8,-238.823,-35.375
-2.77,-237.068,-35.043
-2.73,-235.454,-34.802
-2.7,-233.769,-34.538
-2.67,-231.769,-34.195
-2.64,-229.874,-34.046
-2.6,-228.4,-33.84
-2.57,-226.855,-33.416
-2.54,-224.75,-33.061
-2.51,-222.784,-32.877
-2.47,-220.819,-32.362
-2.44,-218.608,-32.007
-2.41,-216.327,-31.56
-2.38,-214.081,-31.136
-2.34,-212.502,-31.239
-2.31,-211.694,-31.239
-2.28,-210.326,-30.896
-2.25,-207.904,-30.644
-2.21,-205.798,-30.369
-2.18,-203.938,-29.704
-2.15,-201.587,-29.131
-2.12,-199.236,-28.776
-2.08,-197.095,-28.41
-2.05,-195.164,-28.089
-2.02,-193.304,-27.848
-1.99,-191.479,-27.562
-1.95,-189.023,-27.184
-1.92,-186.25,-26.68
-1.89,-183.618,-26.153
-1.86,-181.477,-25.66
-1.82,-179.231,-25.191
-1.79,-176.95,-24.859
-1.76,-174.599,-24.538
-1.73,-171.896,-24.114
-1.69,-168.843,-23.621
-1.66,-166.176,-23.106
-1.63,-163.965,-22.579
-1.59,-161.368,-21.972
-1.56,-157.964,-21.41
-1.53,-154.84,-21.307
-1.5,-152.664,-21.009
-1.46,-149.646,-20.013
-1.43,-146.101,-19.715
-1.4,-143.399,-19.36
-1.37,-141.153,-18.993
-1.33,-138.942,-18.638
-1.3,-136.064,-18.077
-1.27,-133.116,-17.71
-1.24,-130.379,-17.206
-1.2,-127.396,-16.691
-1.17,-124.448,-16.187
-1.14,-121.149,-15.683
-1.11,-117.639,-15.064
-1.07,-113.884,-14.491
-1.04,-110.831,-14.045
-1.01,-108.62,-13.472
-0.98,-105.777,-12.83
-0.94,-102.232,-12.257
-0.91,-98.442,-11.593
-0.88,-94.371,-10.848
-0.85,-90.054,-10.253
-0.81,-85.948,-9.772
-0.78,-82.404,-9.371
-0.75,-79.105,-9.016
-0.72,-75.806,-8.592
-0.68,-72.191,-8.133
-0.65,-68.822,-7.767
-0.62,-65.839,-7.32
-0.59,-62.961,-6.85
-0.55,-59.802,-6.438
-0.52,-56.573,-6.014
-0.49,-53.275,-5.487
-0.46,-49.976,-4.972
-0.42,-46.782,-4.468
-0.39,-43.027,-3.929
-0.36,-38.815,-3.356
-0.33,-34.499,-2.898
-0.29,-30.533,-2.555
-0.26,-26.778,-2.325
-0.23,-23.514,-2.131
-0.2,-20.566,-1.936
-0.16,-17.407,-1.776
-0.13,-14.143,-1.638
-0.1,-10.634,-1.363
-0.07,-6.949,-1.123
-0.03,-3.088,-0.997
0.0,-0.211,-0.745
0.03,0.526,0.286
0.07,0.632,1.695
0.1,2.386,3.127
0.13,7.405,4.124
0.16,12.775,5.144
0.2,17.477,6.037
0.23,21.619,6.575
0.26,26.146,7.011
0.29,30.814,7.354
0.33,35.236,7.629
0.36,39.096,7.778
0.39,42.5,7.985
0.42,45.659,8.294
0.46,48.888,8.637
0.49,51.976,8.935
0.52,54.889,9.348
0.55,57.872,9.84
0.59,61.136,10.287
0.62,64.47,10.677
0.65,67.734,11.146
0.68,71.068,11.604
0.72,74.402,11.983
0.75,77.49,12.361
0.78,80.508,12.819
0.81,83.772,13.346
0.85,87.141,13.815
0.88,90.37,14.297
0.91,93.564,14.778
0.94,97.214,15.202
0.98,101.039,15.522
1.01,104.619,15.797
1.04,107.567,16.187
1.07,110.48,16.645
1.11,113.603,17.046
1.14,116.762,17.516
1.17,120.061,17.894
1.2,123.395,18.203
1.24,126.378,18.478
1.27,129.256,19.062
1.3,132.414,19.463
1.33,135.713,19.956
1.37,139.293,20.643
1.4,142.908,21.009
1.43,145.68,21.261
1.46,148.207,21.64
1.5,151.05,22.018
1.53,153.963,22.292
1.56,156.595,22.59
1.59,159.122,22.98
1.63,162.21,23.358
1.66,165.334,23.679
1.69,167.931,24.068
1.73,170.317,24.412
1.76,172.704,24.733
1.79,174.985,25.088
1.82,177.371,25.546
1.86,180.144,26.107
1.89,183.092,26.577
1.92,185.654,26.989
1.95,188.181,27.173
1.99,190.181,27.012
2.02,191.76,27.001
2.05,193.585,27.23
2.08,196.007,27.596
2.12,198.779,27.986
2.15,201.447,28.364
2.18,203.833,28.685
2.21,205.869,29.005
2.25,207.518,29.189
2.28,209.132,29.383
2.31,210.957,29.762
2.34,213.554,30.151
2.38,215.941,30.426
2.41,217.696,30.758
2.44,219.24,30.987
2.47,220.854,31.136
2.51,222.153,31.067
2.54,223.451,31.067
2.57,225.592,31.56
2.6,227.943,31.732
2.64,229.242,31.858
2.67,229.839,32.156
2.7,231.242,32.602
2.73,233.629,32.969
2.77,235.735,33.278
2.8,237.068,33.416
2.83,238.156,33.553
2.86,240.262,34.08
2.9,243.245,34.401
2.93,245.421,34.573
2.96,246.614,34.917
2.99,246.649,35.581
3.03,246.404,36.211
3.06,247.456,36.715
3.09,249.738,37.334
3.12,252.299,37.998
3.16,254.44,38.514
3.19,256.055,38.972
3.22,258.09,39.407
3.25,260.828,39.522
3.29,262.688,39.384
3.32,263.179,39.441
3.35,264.127,39.602
3.39,265.881,39.487
3.42,266.934,39.304
3.45,267.25,39.728
3.48,268.619,40.094
3.52,270.303,40.014
3.55,271.251,40.186
3.58,272.339,40.495
3.61,273.427,40.61
3.65,274.304,40.782
3.68,275.287,41.08
3.71,276.796,41.16
3.74,277.814,41.125
3.78,278.375,41.274
3.81,278.937,41.309
3.84,279.393,41.229
3.87,279.884,40.942
3.91,279.919,40.885
3.94,279.358,41.458
3.97,279.218,42.214
4.0,280.235,42.34
4.04,281.007,42.134
4.07,281.007,42.191
4.1,281.078,42.569
4.13,282.516,42.97
4.17,283.289,42.546
4.2,283.253,43.13
4.23,284.517,43.714
4.26,285.394,43.245
4.3,285.219,43.027
4.33,285.078,42.97
4.36,284.938,42.569
4.39,284.341,42.019
4.43,283.429,41.916
4.46,283.289,42.145
4.49,283.499,42.076
4.52,283.008,41.87
4.56,281.885,41.755
4.59,280.867,41.503
4.62,279.99,41.068
4.65,278.937,40.633
4.69,277.849,40.312
4.72,277.007,40.186
4.75,276.199,39.968
4.78,274.725,39.705
4.82,272.935,39.407
4.85,271.075,39.086
4.88,269.566,38.662
4.91,267.671,38.376
4.95,265.215,38.525
4.98,263.635,38.788
5.01,262.653,38.846
5.05,261.53,38.892
5.08,260.336,38.903
5.11,259.073,38.754
5.14,257.915,38.502
5.18,256.862,38.25
5.21,255.458,38.113
5.24,253.949,37.987
5.27,252.58,37.769
5.31,251.247,37.574
5.34,249.808,37.368
5.37,248.193,36.944
5.4,246.509,36.452
5.44,244.965,36.039
5.47,243.456,35.718
5.5,241.42,35.26
5.53,239.244,35.111
5.57,238.016,34.928
5.6,236.401,34.309
5.63,233.418,33.897
5.66,230.681,33.886
5.7,229.663,33.622
5.73,229.031,33.095
5.76,227.452,32.843
5.79,225.136,32.763
5.83,222.995,32.522
5.86,221.451,32.156
5.89,219.731,31.652
5.92,217.029,31.4
5.96,214.221,31.262
5.99,212.466,30.976
6.02,210.817,30.621
6.05,208.711,30.529
6.09,206.851,30.346
6.12,205.237,30.048
6.15,203.307,29.475
6.18,201.376,29.223
6.22,199.481,28.685
6.25,197.27,28.272
6.28,195.691,28.398
6.31,195.164,28.318
6.35,193.55,27.585
6.38,190.041,27.092
6.41,186.917,26.795
6.44,185.338,26.405
6.48,183.583,25.477
6.51,180.038,24.859
6.54,177.161,24.916
6.57,176.143,24.744
6.61,174.388,23.885
6.64,170.528,23.152
6.67,166.422,22.842
6.71,163.684,22.567
6.74,161.227,21.651
6.77,157.718,21.032
6.8,154.419,20.826
6.84,151.962,20.414
6.87,149.681,20.059
6.9,147.049,19.555
6.93,144.066,19.131
6.97,141.364,18.718
7.0,138.907,18.237
7.03,136.205,17.745
7.06,133.292,17.332
7.1,130.519,16.943
7.13,127.676,16.439
7.16,124.658,15.946
7.19,121.57,15.396
7.23,118.095,14.789
7.26,114.445,14.193
7.29,110.901,13.644
7.32,107.953,13.22
7.36,105.426,12.681
7.39,102.303,12.063
7.42,98.442,11.501
7.45,94.231,10.883
7.49,90.054,10.264
7.52,85.983,9.657
7.55,81.982,9.153
7.58,78.719,8.821
7.62,75.946,8.351
7.65,72.928,7.813
7.68,69.453,7.4
7.71,66.049,7.045
7.75,62.856,6.575
7.78,59.802,6.163
7.81,56.784,5.808
7.84,53.661,5.43
7.88,50.291,5.063
7.91,46.957,4.708
7.94,43.869,4.158
7.97,40.781,3.712
8.01,37.692,3.242
8.04,34.253,2.704
8.07,30.217,2.291
8.1,26.181,2.073
8.14,22.707,1.787
8.17,19.443,1.478
8.2,15.968,1.134
8.23,11.757,0.768
8.27,7.054,0.412
8.3,2.141,0.309
8.33,-0.07,-0.16
8.37,-0.281,-1.26
8.4,-1.228,-2.394
8.43,-4.597,-3.219
8.46,-9.265,-4.09
8.5,-13.547,-5.086
8.53,-17.267,-5.945
8.56,-21.513,-6.449
8.59,-26.041,-6.885
8.63,-30.814,-7.377
8.66,-35.481,-7.732
8.69,-39.377,-7.904
8.72,-42.641,-8.237
8.76,-45.448,-8.534
8.79,-48.326,-8.89
8.82,-51.765,-9.359
8.85,-55.45,-9.817
8.89,-58.89,-10.195
8.92,-62.364,-10.562
8.95,-66.225,-10.745
8.98,-69.594,-10.94
9.02,-72.331,-11.204
9.05,-74.612,-11.513
9.08,-76.999,-11.799
9.11,-79.385,-12.017
9.15,-82.263,-12.613
9.18,-85.913,-13.323
9.21,-89.493,-13.838
9.24,-92.581,-14.193
9.28,-95.67,-14.617
9.31,-99.074,-15.305
9.34,-102.618,-15.625
9.37,-105.426,-15.946
9.41,-108.549,-16.759
9.44,-112.375,-17.264
9.47,-116.341,-17.687
9.5,-119.92,-18.088
9.54,-122.728,-18.466
9.57,-125.781,-19.154
9.6,-129.607,-19.681
9.63,-133.011,-19.841
9.67,-136.029,-20.643
9.7,-139.503,-21.216
9.73,-142.662,-21.399
9.76,-145.399,-21.72
9.8,-147.786,-21.96
9.83,-150.453,-22.327
9.86,-153.577,-22.682
9.89,-156.876,-22.991
9.93,-160.034,-23.301
9.96,-162.912,-23.644
9.99,-165.649,-23.942
10.03,-168.317,-24.228
10.06,-171.019,-24.526
10.09,-173.546,-24.847
10.12,-175.792,-25.202
10.16,-178.038,-25.672
10.19,-180.916,-26.233
10.22,-184.355,-26.634
10.25,-187.444,-26.863
10.29,-189.549,-27.115
10.32,-191.234,-27.425
10.35,-193.304,-27.619
10.38,-195.691,-27.711
10.42,-197.516,-27.917
10.45,-199.236,-28.33
10.48,-201.271,-28.57
10.51,-203.412,-28.639
10.55,-205.132,-28.788
10.58,-206.465,-28.983
10.61,-207.623,-29.109
10.64,-208.711,-29.372
10.68,-210.536,-29.704
10.71,-213.133,-30.059
10.74,-215.414,-30.414
10.77,-217.099,-30.85
10.81,-218.608,-31.319
10.84,-220.644,-31.617
10.87,-222.995,-31.766
10.9,-224.785,-32.098
10.94,-226.083,-32.706
10.97,-227.452,-33.198
11.0,-229.242,-33.759
11.03,-231.804,-34.218
11.07,-234.225,-34.573
11.1,-236.156,-34.813
11.13,-238.121,-34.917
11.16,-240.192,-34.951
11.2,-241.876,-35.077
11.23,-243.14,-35.398
11.26,-244.684,-35.764
11.29,-246.965,-36.062
11.33,-249.246,-36.28
11.36,-250.439,-36.417
11.39,-251.106,-36.578
11.42,-252.405,-36.83
11.46,-254.651,-37.082
11.49,-256.827,-37.219
11.52,-258.16,-37.494
11.56,-259.213,-37.838
11.59,-260.406,-37.987
11.62,-261.81,-37.872
11.65,-262.968,-38.044
11.69,-264.021,-38.136
11.72,-264.934,-38.101
11.75,-266.057,-38.342
11.78,-267.32,-38.502
11.82,-268.373,-38.708
11.85,-269.566,-38.96
11.88,-271.005,-39.155
11.91,-272.128,-39.293
11.95,-271.637,-39.945
11.98,-271.286,-40.942
12.01,-272.69,-41.515
12.04,-274.234,-41.595
12.08,-274.655,-42.007
12.11,-275.357,-42.557
12.14,-277.007,-42.42
12.17,-278.024,-42.145
12.21,-278.726,-42.248
12.24,-279.568,-42.305
12.27,-280.586,-42.466
12.3,-281.393,-42.512
12.34,-281.569,-42.844
12.37,-282.06,-43.038
12.4,-283.324,-43.016
12.43,-284.096,-42.672
12.47,-283.569,-42.489
12.5,-283.64,-42.764
12.53,-285.219,-42.683
12.56,-285.886,-42.294
12.6,-285.57,-42.34
12.63,-285.5,-42.363
12.66,-285.254,-41.985
12.69,-284.482,-41.515
12.73,-283.289,-41.263
12.76,-282.516,-41.309
12.79,-282.376,-41.435
12.82,-282.446,-41.492
12.86,-281.99,-41.503
12.89,-281.007,-41.435
12.92,-280.095,-41.091
12.95,-279.639,-40.621
12.99,-278.831,-40.186
13.02,-277.322,-40.026
13.05,-275.989,-40.026
13.08,-274.023,-40.14
13.12,-271.707,-40.415
13.15,-270.619,-40.392
13.18,-269.601,-40.049
13.22,-267.917,-39.923
13.25,-266.267,-39.911
13.28,-265.46,-39.785
13.31,-265.215,-39.716
13.35,-264.864,-39.693
13.38,-263.635,-39.579
13.41,-261.88,-39.304
13.44,-259.985,-38.846
13.48,-258.441,-38.376
13.51,-256.932,-38.044
13.54,-255.107,-37.861
13.57,-253.142,-37.78
13.61,-251.598,-37.666
13.64,-250.826,-37.517
13.67,-249.773,-37.288
13.7,-247.948,-36.887
13.74,-245.807,-36.463
13.77,-244.157,-36.131
13.8,-242.929,-35.764
13.83,-241.455,-35.443
13.87,-239.314,-35.226
13.9,-237.033,-35.123
13.93,-235.489,-34.894
