Trigger_Date,2023/09/13
Trigger_Time,T 08:32:17.051 PDT
Samples_Per_Cycle,512
Microseconds_Per_Sample,32.496
Time (ms),Voltage (V),Current (A)
-16.64,-79.35,-14.445
-16.61,-82.298,-14.892
-16.57,-86.053,-15.316
-16.54,-89.879,-15.683
-16.51,-93.108,-16.095
-16.48,-96.126,-16.278
-16.44,-99.074,-16.53
-16.41,-101.846,-16.908
-16.38,-104.233,-17.332
-16.35,-106.619,-17.813
-16.31,-109.462,-18.375
-16.28,-112.656,-19.016
-16.25,-116.13,-19.635
-16.22,-119.113,-20.127
-16.18,-122.026,-20.54
-16.15,-125.255,-20.746
-16.12,-128.448,-21.044
-16.09,-131.818,-21.536
-16.05,-134.871,-21.892
-16.02,-137.503,-22.281
-15.99,-140.591,-22.9
-15.96,-144.978,-23.713
-15.92,-148.523,-23.828
-15.89,-150.488,-24.068
-15.86,-152.805,-24.538
-15.83,-156.349,-24.893
-15.79,-159.824,-25.145
-15.76,-162.386,-25.603
-15.73,-164.807,-26.004
-15.7,-167.439,-26.199
-15.66,-170.001,-26.348
-15.63,-172.388,-26.6
-15.6,-174.879,-26.909
-15.57,-177.617,-27.081
-15.53,-180.46,-27.379
-15.5,-182.776,-27.952
-15.47,-185.162,-28.501
-15.44,-187.935,-28.708
-15.4,-190.321,-28.868
-15.37,-192.146,-29.177
-15.34,-194.006,-29.418
-15.31,-195.937,-29.383
-15.27,-198.183,-29.762
-15.24,-201.271,-30.266
-15.21,-203.517,-30.38
-15.18,-204.289,-30.598
-15.14,-205.518,-30.941
-15.11,-208.044,-31.067
-15.08,-210.255,-31.251
-15.05,-212.01,-31.697
-15.01,-213.905,-32.11
-14.98,-216.257,-32.431
-14.95,-218.994,-32.66
-14.92,-221.486,-32.935
-14.88,-223.276,-33.164
-14.85,-224.995,-33.381
-14.82,-226.996,-33.53
-14.79,-229.102,-33.782
-14.75,-231.172,-33.943
-14.72,-232.822,-34.126
-14.69,-234.155,-34.332
-14.66,-235.84,-34.607
-14.62,-238.226,-35.008
-14.59,-240.894,-35.249
-14.56,-242.824,-35.386
-14.53,-243.456,-35.329
-14.49,-244.649,-35.478
-14.46,-246.93,-35.501
-14.43,-249.597,-35.97
-14.4,-251.633,-36.555
-14.36,-252.861,-36.772
-14.33,-253.984,-36.841
-14.3,-255.809,-37.047
-14.27,-257.95,-37.185
-14.23,-259.354,-37.357
-14.2,-260.757,-37.735
-14.17,-262.968,-37.964
-14.14,-264.864,-38.136
-14.1,-265.952,-38.273
-14.07,-266.969,-38.158
-14.04,-268.233,-38.044
-14.01,-269.531,-38.101
-13.97,-270.83,-38.388
-13.94,-272.128,-38.674
-13.91,-273.076,-38.892
-13.88,-274.409,-39.155
-13.84,-275.848,-39.144
-13.81,-276.726,-39.235
-13.78,-277.814,-39.419
-13.75,-279.077,-39.43
-13.71,-280.305,-39.533
-13.68,-281.429,-39.865
-13.65,-282.797,-40.198
-13.62,-283.99,-40.358
-13.58,-284.938,-40.301
-13.55,-285.71,-40.14
-13.52,-286.237,-39.98
-13.49,-286.447,-39.785
-13.45,-286.623,-39.751
-13.42,-287.325,-40.003
-13.39,-288.202,-40.06
-13.36,-288.132,-39.762
-13.32,-287.535,-39.59
-13.29,-288.132,-40.106
-13.26,-288.799,-39.636
-13.23,-287.57,-39.201
-13.19,-287.009,-39.819
-13.16,-289.114,-39.968
-13.13,-289.781,-39.304
-13.1,-288.202,-39.59
-13.06,-287.605,-39.739
-13.03,-287.746,-39.315
-13.0,-286.938,-39.029
-12.97,-285.991,-39.052
-12.93,-285.886,-39.018
-12.9,-286.061,-39.075
-12.87,-286.166,-39.247
-12.84,-286.096,-39.315
-12.8,-285.464,-38.995
-12.77,-284.201,-38.651
-12.74,-282.867,-38.399
-12.71,-281.99,-38.101
-12.67,-281.323,-37.849
-12.64,-280.551,-37.815
-12.61,-279.428,-37.78
-12.58,-277.989,-37.677
-12.54,-276.726,-37.357
-12.51,-275.603,-36.852
-12.48,-274.059,-36.429
-12.45,-272.058,-36.119
-12.41,-270.163,-35.993
-12.38,-269.321,-35.902
-12.35,-268.584,-35.753
-12.32,-267.145,-35.65
-12.28,-265.074,-35.489
-12.25,-262.968,-35.146
-12.22,-261.53,-34.756
-12.19,-260.231,-34.424
-12.15,-258.371,-34.401
-12.12,-256.511,-34.367
-12.09,-255.002,-34.355
-12.06,-254.686,-34.493
-12.02,-253.914,-34.183
-11.99,-251.106,-33.633
-11.96,-247.491,-33.141
-11.93,-246.053,-32.866
-11.89,-245.982,-32.408
-11.86,-244.473,-32.076
-11.83,-241.876,-32.098
-11.8,-239.806,-32.064
-11.76,-238.507,-31.571
-11.73,-236.507,-31.182
-11.7,-234.296,-31.022
-11.67,-232.646,-30.701
-11.63,-230.681,-30.266
-11.6,-228.294,-29.991
-11.57,-225.768,-29.704
-11.54,-223.311,-29.372
-11.5,-221.135,-29.097
-11.47,-219.275,-28.902
-11.44,-217.38,-28.696
-11.41,-215.239,-28.582
-11.37,-213.484,-28.49
-11.34,-211.975,-28.226
-11.31,-210.291,-28.169
-11.28,-208.887,-28.089
-11.24,-207.202,-27.654
-11.21,-204.851,-27.23
-11.18,-202.675,-26.783
-11.15,-200.394,-26.268
-11.11,-197.586,-26.004
-11.08,-195.34,-25.844
-11.05,-193.761,-25.512
-11.02,-191.83,-25.248
-10.98,-189.444,-25.007
-10.95,-186.847,-24.687
-10.92,-184.46,-24.297
-10.89,-182.425,-23.931
-10.85,-180.6,-23.61
-10.82,-178.389,-23.289
-10.79,-175.932,-22.877
-10.76,-173.3,-22.453
-10.72,-170.598,-22.018
-10.69,-168.001,-21.594
-10.66,-165.088,-21.067
-10.63,-162.21,-20.677
-10.59,-159.508,-20.185
-10.56,-156.735,-19.83
-10.53,-154.103,-19.566
-10.5,-151.436,-19.199
-10.46,-148.909,-18.867
-10.43,-145.786,-18.214
-10.4,-141.609,-17.63
-10.37,-137.468,-17.115
-10.33,-134.38,-16.702
-10.3,-131.888,-16.29
-10.27,-128.694,-15.923
-10.24,-125.711,-15.717
-10.2,-123.325,-15.305
-10.17,-120.692,-14.835
-10.14,-117.744,-14.468
-10.11,-114.34,-14.148
-10.07,-111.041,-13.735
-10.04,-108.023,-13.288
-10.01,-105.215,-12.853
-9.98,-102.338,-12.429
-9.94,-99.039,-11.994
-9.91,-95.494,-11.318
-9.88,-91.353,-10.528
-9.85,-87.247,-9.921
-9.81,-83.737,-9.382
-9.78,-79.947,-8.832
-9.75,-75.841,-8.511
-9.72,-72.401,-8.237
-9.68,-69.769,-7.813
-9.65,-66.786,-7.274
-9.62,-62.961,-6.759
-9.59,-58.995,-6.278
-9.55,-55.661,-5.728
-9.52,-52.608,-5.144
-9.49,-49.133,-4.628
-9.46,-45.273,-4.17
-9.42,-40.991,-3.735
-9.39,-36.92,-3.311
-9.36,-33.2,-2.978
-9.33,-29.655,-2.726
-9.29,-26.076,-2.474
-9.26,-22.426,-2.177
-9.23,-18.706,-1.925
-9.2,-15.302,-1.661
-9.16,-11.546,-1.398
-9.13,-7.932,-1.1
-9.1,-3.264,-0.939
-9.07,-0.07,-0.745
-9.03,0.526,0.172
-9.0,0.807,1.42
-8.97,2.281,2.669
-8.94,6.317,3.391
-8.9,10.599,4.525
-8.87,14.459,6.278
-8.84,18.32,7.572
-8.81,22.777,8.271
-8.77,27.444,9.084
-8.74,32.568,9.932
-8.71,37.061,10.47
-8.68,40.816,10.917
-8.64,44.606,11.295
-8.61,48.642,11.524
-8.58,52.678,11.559
-8.55,55.872,11.616
-8.51,58.434,11.868
-8.48,61.592,12.28
-8.45,65.382,12.567
-8.42,68.646,12.842
-8.38,70.787,13.357
-8.35,73.349,14.045
-8.32,76.999,14.434
-8.29,80.684,14.915
-8.25,84.264,15.557
-8.22,87.808,16.038
-8.19,91.248,16.53
-8.16,94.968,16.989
-8.12,98.618,17.16
-8.09,101.39,17.401
-8.06,104.303,17.733
-8.03,107.321,17.962
-7.99,109.883,18.363
-7.96,112.936,18.936
-7.93,116.586,19.417
-7.9,119.675,19.864
-7.86,122.202,20.196
-7.83,124.623,20.448
-7.8,127.606,21.055
-7.77,130.73,21.388
-7.73,133.467,21.846
-7.7,136.626,22.189
-7.67,139.819,22.338
-7.64,142.451,22.693
-7.6,145.364,23.152
-7.57,148.558,23.484
-7.54,151.366,23.816
-7.51,154.208,24.481
-7.47,157.613,24.973
-7.44,160.841,25.259
-7.41,163.333,25.809
-7.38,166.071,26.336
-7.34,168.983,26.508
-7.31,171.265,26.772
-7.28,173.792,27.161
-7.25,176.353,27.356
-7.21,178.951,27.619
-7.18,181.653,28.055
-7.15,184.496,28.433
-7.12,187.198,28.685
-7.08,189.584,28.902
-7.05,191.479,29.109
-7.02,193.831,29.235
-6.99,196.252,29.338
-6.95,198.323,29.67
-6.92,200.323,30.071
-6.89,202.359,30.323
-6.86,204.359,30.621
-6.82,206.43,30.919
-6.79,208.501,30.873
-6.76,209.975,30.953
-6.73,211.589,31.445
-6.69,214.397,32.167
-6.66,217.274,32.385
-6.63,218.854,32.522
-6.6,221.065,33.381
-6.56,224.96,33.737
-6.53,227.452,33.336
-6.5,227.136,33.221
-6.47,228.189,33.576
-6.43,231.348,33.519
-6.4,233.839,33.393
-6.37,234.19,33.748
-6.34,234.892,34.241
-6.3,237.419,34.39
-6.27,239.946,34.378
-6.24,241.174,34.756
-6.21,242.157,35.191
-6.17,243.947,35.421
-6.14,246.579,35.581
-6.11,249.001,35.867
-6.08,250.264,36.268
-6.04,251.212,36.543
-6.01,253.001,36.543
-5.98,255.142,36.532
-5.95,256.721,36.658
-5.91,257.88,36.875
-5.88,259.178,37.185
-5.85,261.038,37.46
-5.82,263.214,37.654
-5.78,264.688,37.861
-5.75,265.671,38.113
-5.72,267.039,38.342
-5.69,269.286,38.353
-5.65,271.426,38.365
-5.62,272.69,38.548
-5.59,273.813,38.72
-5.56,275.006,38.754
-5.52,276.024,38.846
-5.49,277.112,38.96
-5.46,278.235,38.96
-5.43,279.288,39.086
-5.39,280.411,39.304
-5.36,281.464,39.602
-5.33,282.341,39.991
-5.3,283.604,40.163
-5.26,284.727,40.014
-5.23,285.184,40.094
-5.2,285.921,40.186
-5.17,286.447,40.014
-5.13,286.798,40.049
-5.1,287.36,39.968
-5.07,287.64,39.705
-5.04,288.342,40.266
-5.0,289.465,40.278
-4.97,288.869,39.785
-4.94,288.448,40.163
-4.91,289.185,39.819
-4.87,289.325,39.293
-4.84,289.255,39.682
-4.81,290.273,39.98
-4.78,290.448,39.602
-4.74,289.711,39.625
-4.71,289.5,39.602
-4.68,289.886,39.659
-4.65,288.974,38.788
-4.61,286.237,38.319
-4.58,285.289,38.651
-4.55,286.938,38.823
-4.52,287.289,38.41
-4.48,285.114,38.445
-4.45,283.394,38.594
-4.42,283.78,38.571
-4.39,283.394,37.689
-4.35,280.446,37.322
-4.32,278.867,37.62
-4.29,279.779,37.62
-4.26,279.744,37.105
-4.22,277.428,37.162
-4.19,275.006,37.07
-4.16,273.567,36.635
-4.13,272.69,36.131
-4.09,271.181,35.764
-4.06,269.145,35.535
-4.03,267.706,35.512
-4.0,267.215,35.409
-3.96,266.618,35.18
-3.93,264.618,35.02
-3.9,262.442,35.214
-3.87,261.319,34.859
-3.83,259.88,34.298
-3.8,258.231,34.378
-3.77,257.564,34.756
-3.74,257.529,34.768
-3.7,256.371,34.275
-3.67,253.387,33.485
-3.64,250.369,32.958
-3.61,248.79,32.602
-3.57,247.702,32.041
-3.54,245.386,31.629
-3.51,241.771,31.297
-3.48,239.384,30.964
-3.44,238.472,30.712
-3.41,237.138,30.46
-3.38,234.401,30.403
-3.35,231.628,30.38
-3.31,230.049,30.197
-3.28,228.926,29.945
-3.25,227.382,29.853
-3.22,225.452,29.796
-3.18,223.1,29.567
-3.15,220.644,29.257
-3.12,218.748,28.948
-3.09,217.415,28.582
-3.05,215.625,28.318
-3.02,213.379,28.135
-2.99,211.659,27.848
-2.96,210.08,27.574
-2.92,208.115,27.264
-2.89,205.623,26.852
-2.86,203.166,26.428
-2.83,201.236,26.096
-2.79,199.551,25.809
-2.76,197.446,25.66
-2.73,195.164,25.466
-2.7,193.164,25.202
-2.66,191.234,24.836
-2.63,188.953,24.423
-2.6,186.391,23.988
-2.57,183.478,23.587
-2.53,180.846,23.266
-2.5,178.915,23.049
-2.47,176.88,22.797
-2.44,173.897,22.441
-2.4,170.352,22.018
-2.37,167.65,21.468
-2.34,165.263,20.964
-2.31,162.456,20.528
-2.27,159.192,20.299
-2.24,156.49,20.173
-2.21,154.384,19.818
-2.18,151.997,19.383
-2.14,148.979,18.993
-2.11,146.101,18.569
-2.08,143.469,18.031
-2.05,140.346,17.332
-2.01,136.977,16.92
-1.98,133.994,16.725
-1.95,131.818,16.507
-1.92,129.221,15.935
-1.88,125.43,15.305
-1.85,121.64,14.904
-1.82,118.797,14.4
-1.79,115.744,13.792
-1.75,111.954,13.254
-1.72,108.409,12.83
-1.69,104.9,12.097
-1.66,101.601,11.834
-1.62,99.004,11.673
-1.59,96.021,11.135
-1.56,91.809,10.505
-1.53,87.492,10.047
-1.49,84.193,9.577
-1.46,81.386,9.073
-1.43,78.017,8.786
-1.4,74.297,8.454
-1.36,70.647,7.95
-1.33,67.242,7.48
-1.3,64.365,7.068
-1.27,61.452,6.564
-1.23,57.732,6.197
-1.2,54.222,5.945
-1.17,50.993,5.487
-1.14,47.835,5.235
-1.1,44.992,4.949
-1.07,41.588,4.273
-1.04,37.341,3.654
-1.01,33.13,3.07
-0.97,29.199,2.52
-0.94,25.339,2.062
-0.91,21.724,1.787
-0.88,17.723,1.26
-0.84,12.775,0.733
-0.81,8.107,0.504
-0.78,3.123,0.63
-0.75,0.035,0.355
-0.71,-0.316,-0.458
-0.68,-0.562,-1.42
-0.65,-2.597,-2.463
-0.62,-7.44,-3.574
-0.58,-11.897,-4.502
-0.55,-13.582,-5.487
-0.52,-14.915,-6.69
-0.49,-19.232,-7.744
-0.45,-25.374,-8.489
-0.42,-29.901,-9.176
-0.39,-32.849,-10.012
-0.36,-37.306,-10.425
-0.32,-43.132,-10.528
-0.29,-48.01,-10.883
-0.26,-51.134,-11.238
-0.23,-54.117,-11.364
-0.19,-57.697,-11.57
-0.16,-61.452,-11.834
-0.13,-64.716,-12.189
-0.1,-67.769,-12.521
-0.06,-70.576,-12.945
-0.03,-73.349,-13.414
0.0,-76.332,-13.907
0.03,-79.491,-14.434
0.06,-83.141,-14.915
0.1,-86.615,-15.362
0.13,-89.703,-15.912
0.16,-92.967,-16.404
0.19,-96.477,-16.805
0.23,-99.811,-17.126
0.26,-102.724,-17.493
0.29,-105.847,-17.962
0.32,-109.497,-18.432
0.36,-112.761,-18.959
0.39,-115.814,-19.543
0.42,-119.394,-20.001
0.45,-123.114,-20.276
0.49,-126.027,-20.517
0.52,-128.062,-20.849
0.55,-130.554,-21.181
0.58,-133.923,-21.491
0.62,-137.117,-21.949
0.65,-139.995,-22.545
0.68,-142.873,-23.129
0.71,-146.066,-23.587
0.75,-148.663,-23.759
0.78,-151.19,-24.389
0.81,-154.489,-24.824
0.84,-157.683,-24.973
0.88,-160.28,-25.42
0.91,-162.877,-25.924
0.94,-165.895,-26.107
0.97,-168.633,-26.302
1.01,-171.194,-26.588
1.04,-173.511,-26.726
1.07,-175.511,-26.966
1.1,-177.968,-27.402
1.14,-180.986,-27.894
1.17,-184.039,-28.352
1.2,-186.671,-28.799
1.23,-189.128,-29.12
1.27,-191.339,-29.303
1.3,-193.34,-29.532
1.33,-195.972,-29.647
1.36,-198.288,-29.796
1.4,-200.183,-30.162
1.43,-202.219,-30.54
1.46,-204.57,-30.747
1.49,-206.851,-30.941
1.53,-208.36,-31.113
1.56,-209.869,-31.216
1.59,-211.905,-31.274
1.62,-213.94,-31.537
1.66,-216.046,-31.972
1.69,-218.257,-32.35
1.72,-220.468,-32.74
1.75,-222.82,-33.084
1.79,-224.364,-33.152
1.82,-225.452,-33.278
1.85,-227.733,-33.782
1.88,-230.505,-33.954
1.92,-232.12,-33.943
1.95,-233.067,-34.195
1.98,-235.068,-34.676
2.01,-237.77,-34.756
2.05,-239.104,-34.71
2.08,-239.876,-35.065
2.11,-242.262,-35.272
2.14,-245.175,-35.352
2.18,-246.895,-35.81
2.21,-248.72,-36.268
2.24,-250.475,-36.257
2.27,-251.562,-36.337
2.31,-253.072,-36.738
2.34,-255.002,-36.921
2.37,-256.827,-36.967
2.4,-258.231,-37.173
2.44,-259.705,-37.448
2.47,-261.53,-37.551
2.5,-263.074,-37.712
2.53,-264.793,-37.906
2.57,-266.759,-37.975
2.6,-268.268,-37.998
2.63,-269.496,-38.136
2.66,-270.865,-38.284
2.7,-272.409,-38.25
2.73,-273.146,-38.422
2.76,-274.269,-38.777
2.79,-275.392,-38.869
2.83,-276.305,-38.983
2.86,-277.428,-39.098
2.89,-278.586,-39.235
2.92,-279.919,-39.419
2.96,-281.569,-39.625
2.99,-282.903,-39.865
3.02,-283.99,-40.266
3.05,-285.184,-40.255
3.09,-285.57,-40.14
3.12,-285.921,-40.198
3.15,-286.623,-40.037
3.18,-287.184,-39.911
3.22,-287.816,-40.106
3.25,-288.518,-40.22
3.28,-289.009,-40.163
3.31,-289.149,-40.209
3.35,-289.29,-40.278
3.38,-289.746,-40.117
3.41,-289.29,-39.682
3.44,-287.991,-39.671
3.48,-288.448,-39.842
3.51,-289.185,-39.327
3.54,-288.658,-39.499
3.57,-288.307,-39.716
3.61,-287.921,-39.235
3.64,-287.044,-38.937
3.67,-286.833,-39.098
3.7,-287.289,-39.041
3.74,-287.044,-39.075
3.77,-286.517,-39.327
3.8,-286.166,-39.327
3.83,-285.605,-38.903
3.87,-284.552,-38.536
3.9,-283.675,-38.262
3.93,-283.008,-37.975
3.96,-282.201,-37.792
4.0,-281.569,-37.861
4.03,-280.902,-37.815
4.06,-279.709,-37.609
4.09,-278.024,-37.231
4.13,-276.27,-36.795
4.16,-274.129,-36.234
4.19,-272.479,-36.062
4.22,-272.093,-36.268
4.26,-271.672,-36.085
4.29,-270.023,-35.879
4.32,-268.163,-35.856
4.35,-266.969,-35.673
4.39,-265.355,-35.088
4.42,-263.109,-34.664
4.45,-260.757,-34.516
4.48,-259.389,-34.401
4.52,-258.406,-34.126
4.55,-256.476,-34.012
4.58,-254.16,-33.943
4.61,-252.58,-33.679
4.65,-251.176,-33.118
4.68,-249.457,-32.923
4.71,-247.527,-32.786
4.74,-245.421,-32.488
4.78,-243.666,-32.373
4.81,-242.087,-32.19
4.84,-240.543,-32.098
4.87,-238.858,-32.087
4.91,-237.068,-31.789
4.94,-235.033,-31.423
4.97,-232.857,-31.171
5.0,-231.172,-30.827
5.04,-229.558,-30.483
5.07,-228.189,-30.266
5.1,-226.399,-30.128
5.13,-224.399,-29.933
5.17,-222.293,-29.578
5.2,-220.187,-29.177
5.23,-218.187,-28.879
5.26,-216.467,-28.605
5.3,-214.677,-28.387
5.33,-212.607,-28.284
5.36,-210.957,-28.032
5.39,-209.238,-27.642
5.43,-206.781,-27.264
5.46,-203.903,-26.898
5.49,-201.517,-26.531
5.52,-199.551,-26.279
5.56,-197.972,-26.13
5.59,-196.393,-25.901
5.62,-194.147,-25.672
5.65,-191.515,-25.385
5.69,-188.882,-24.939
5.72,-186.391,-24.481
5.75,-183.934,-23.965
5.78,-181.126,-23.45
5.82,-178.284,-23.186
5.85,-175.827,-22.968
5.88,-173.37,-22.579
5.91,-170.738,-22.166
5.95,-167.86,-21.766
5.98,-165.158,-21.41
6.01,-162.842,-20.929
6.04,-160.385,-20.448
6.08,-157.718,-20.208
6.11,-155.191,-19.978
6.14,-152.734,-19.555
6.17,-149.892,-19.257
6.21,-146.628,-18.925
6.24,-143.539,-18.295
6.27,-141.118,-18.077
6.3,-138.416,-17.252
6.34,-134.485,-16.84
6.37,-131.396,-16.897
6.4,-129.15,-16.175
6.43,-125.676,-15.499
6.47,-121.745,-15.11
6.5,-118.446,-14.583
6.53,-115.428,-13.918
6.56,-112.375,-13.575
6.6,-109.567,-13.3
6.63,-106.444,-12.842
6.66,-102.969,-12.349
6.69,-99.319,-11.948
6.73,-95.67,-11.444
6.76,-92.055,-10.917
6.79,-88.475,-10.459
6.82,-85.036,-10.115
6.86,-81.947,-9.703
6.89,-79.245,-9.153
6.92,-75.806,-8.672
6.95,-71.735,-8.294
6.99,-68.015,-7.755
7.02,-64.575,-7.194
7.05,-61.276,-6.736
7.08,-57.697,-6.369
7.12,-54.538,-5.888
7.15,-51.555,-5.189
7.18,-47.694,-4.662
7.21,-43.694,-4.17
7.25,-39.868,-3.54
7.28,-35.902,-2.956
7.31,-31.621,-2.612
7.34,-27.76,-2.486
7.38,-24.216,-2.268
7.41,-20.601,-2.005
7.44,-16.881,-1.867
7.47,-13.266,-1.695
7.51,-9.546,-1.386
7.54,-5.229,-1.088
7.57,-1.123,-1.111
7.6,0.456,-0.515
7.64,0.807,0.756
7.67,1.579,2.463
7.7,5.896,3.792
7.73,11.16,4.571
7.77,14.284,5.888
7.8,17.162,7.286
7.83,21.198,7.847
7.86,25.163,8.214
7.9,29.445,9.164
7.93,33.762,9.68
7.96,37.061,9.714
7.99,40.114,10.161
8.03,44.711,10.791
8.06,49.554,10.883
8.09,52.818,11.215
8.12,55.626,11.914
8.16,59.065,12.212
8.19,62.575,12.315
8.22,65.523,12.842
8.25,68.541,13.403
8.29,71.98,13.838
8.32,75.735,14.342
8.35,79.245,14.835
8.38,83.035,15.179
8.42,86.79,15.454
8.45,89.738,15.877
8.48,92.897,16.313
8.51,96.582,16.565
8.55,99.741,17.046
8.58,102.408,17.676
8.61,105.04,18.134
8.64,108.199,18.661
8.68,112.024,19.245
8.71,115.533,19.589
8.74,118.376,20.013
8.77,121.745,20.46
8.81,125.009,20.586
8.84,127.536,20.769
8.87,130.273,21.273
8.9,133.818,21.777
8.94,137.398,22.281
8.97,139.749,22.625
9.0,141.82,23.232
9.03,144.768,23.633
9.07,147.856,23.679
9.1,150.032,23.782
9.13,151.576,23.942
9.16,153.296,24.206
9.2,155.963,24.549
9.23,159.683,25.099
9.26,163.158,25.695
9.29,165.825,26.199
9.33,168.211,26.554
9.36,170.984,26.886
9.39,173.932,27.15
9.42,176.459,27.447
9.46,179.231,27.952
9.49,182.46,28.41
9.52,185.443,28.788
9.55,188.04,29.154
9.59,190.462,29.383
9.62,192.953,29.521
9.65,195.34,29.647
9.68,197.375,29.933
9.72,199.657,30.277
9.75,202.078,30.54
9.78,204.324,30.747
9.81,206.149,30.964
9.85,207.693,31.079
9.88,209.308,31.056
9.91,211.273,31.171
9.94,213.519,31.64
9.98,215.976,32.362
10.01,219.064,33.049
10.04,222.188,33.29
10.07,224.153,33.519
10.11,225.522,33.714
10.14,226.75,33.668
10.17,228.014,33.668
10.2,229.979,33.794
10.24,232.19,34.023
10.27,234.015,34.057
10.3,234.962,34.206
10.33,236.121,34.596
10.37,237.946,34.642
10.4,239.069,34.676
10.43,240.332,35.191
10.46,243.245,35.695
10.5,245.702,35.89
10.53,247.351,36.383
10.56,249.422,36.83
10.59,252.264,37.013
10.63,253.914,37.013
10.66,254.51,37.127
10.69,255.634,37.253
10.72,257.95,37.311
10.76,260.582,37.448
10.79,262.337,37.712
10.82,263.319,37.987
10.85,264.232,38.262
10.89,265.811,38.296
10.92,267.215,38.17
10.95,267.952,38.319
10.98,269.04,38.628
11.02,270.795,38.914
11.05,272.339,39.178
11.08,273.708,39.373
11.11,275.006,39.567
11.15,276.375,39.602
11.18,277.568,39.59
11.21,278.796,39.636
11.24,280.13,39.625
11.28,281.042,39.911
11.31,282.411,40.255
11.34,283.64,40.358
11.37,284.447,40.553
11.41,285.5,40.507
11.44,286.272,40.243
11.47,286.517,40.198
11.5,286.974,40.175
11.54,287.535,40.014
11.57,287.851,40.129
11.6,288.026,40.335
11.63,288.448,40.232
11.67,288.588,40.014
11.7,288.412,39.957
11.73,288.728,39.774
11.76,288.939,39.774
11.8,289.079,40.106
11.83,289.536,40.243
11.86,289.676,40.106
11.89,289.29,40.049
11.93,288.693,39.751
11.96,287.746,39.338
11.99,286.658,39.144
12.02,286.237,39.235
12.06,286.728,39.338
12.09,286.798,39.384
12.12,286.131,39.476
12.15,285.429,39.396
12.19,284.587,39.086
12.22,283.71,38.846
12.25,282.727,38.697
12.28,282.376,38.525
12.32,282.13,38.319
12.35,281.534,38.262
12.38,280.305,38.101
12.41,278.761,37.769
12.45,277.042,37.368
12.48,275.357,37.013
12.51,274.094,36.681
12.54,272.655,36.452
12.58,270.97,36.497
12.61,269.812,36.474
12.64,269.005,36.2
12.67,267.426,36.085
12.71,265.53,35.879
12.74,263.705,35.352
12.77,261.951,35.054
12.8,260.722,34.939
12.84,259.81,34.71
12.87,258.055,34.401
12.9,255.388,34.309
12.93,253.668,34.298
12.97,252.896,33.817
13.0,251.212,33.416
13.03,248.93,33.336
13.06,246.719,33.221
13.1,245.105,32.958
13.13,243.806,32.717
13.16,242.473,32.763
13.19,242.017,32.992
13.23,241.666,33.084
13.26,240.402,32.958
13.29,238.577,32.797
13.32,237.56,32.499
13.36,236.366,32.03
13.39,234.366,31.629
13.42,231.944,31.171
13.45,229.207,30.667
13.49,226.891,30.162
13.52,224.855,29.727
13.55,222.223,29.223
13.58,218.608,28.444
13.62,214.993,27.894
