Trigger_Date,2023/09/13
Trigger_Time,T 09:36:22.808 PDT
Samples_Per_Cycle,512
Microseconds_Per_Sample,32.546
Time (ms),Voltage (V),Current (A)
-16.66,-0.842,-1.879
-16.63,-3.159,-2.967
-16.6,-6.563,-3.104
-16.57,-8.809,-4.135
-16.53,-10.985,-5.396
-16.5,-14.003,-6.427
-16.47,-18.741,-7.309
-16.44,-23.233,-8.03
-16.4,-26.532,-8.821
-16.37,-29.866,-9.623
-16.34,-34.744,-10.127
-16.31,-39.377,-10.195
-16.27,-42.992,-10.253
-16.24,-46.361,-10.505
-16.21,-50.116,-10.734
-16.18,-53.906,-10.848
-16.14,-57.521,-11.043
-16.11,-60.785,-11.433
-16.08,-64.154,-11.799
-16.05,-67.137,-12.154
-16.01,-69.769,-12.693
-15.98,-72.647,-13.231
-15.95,-76.051,-13.609
-15.92,-79.28,-13.701
-15.88,-82.614,-13.941
-15.85,-86.018,-14.365
-15.82,-89.142,-14.675
-15.78,-91.809,-14.972
-15.75,-94.722,-15.282
-15.72,-97.951,-15.476
-15.69,-100.653,-15.889
-15.65,-103.18,-16.679
-15.62,-106.163,-17.435
-15.59,-109.673,-17.974
-15.56,-112.901,-18.432
-15.52,-115.814,-19.073
-15.49,-118.903,-19.726
-15.46,-122.552,-20.322
-15.43,-125.922,-20.528
-15.39,-128.519,-20.792
-15.36,-131.396,-21.41
-15.33,-135.152,-21.823
-15.3,-138.837,-22.063
-15.26,-141.539,-22.396
-15.23,-144.066,-22.945
-15.2,-146.979,-23.346
-15.17,-149.892,-23.507
-15.13,-152.103,-23.713
-15.1,-154.559,-24.32
-15.07,-157.823,-24.916
-15.04,-161.263,-25.271
-15.0,-163.719,-25.66
-14.97,-166.211,-26.187
-14.94,-169.159,-26.508
-14.91,-172.177,-26.657
-14.87,-174.529,-26.966
-14.84,-176.74,-27.562
-14.81,-179.898,-28.032
-14.78,-183.057,-28.169
-14.74,-185.233,-28.41
-14.71,-187.268,-28.834
-14.68,-189.619,-28.948
-14.65,-191.55,-28.879
-14.61,-192.989,-29.12
-14.58,-195.2,-29.578
-14.55,-197.867,-29.922
-14.52,-199.832,-30.197
-14.48,-201.482,-30.403
-14.45,-203.587,-30.781
-14.42,-206.29,-31.022
-14.39,-208.395,-31.251
-14.35,-210.361,-31.663
-14.32,-212.256,-32.076
-14.29,-214.081,-32.431
-14.26,-216.151,-32.786
-14.22,-218.819,-33.095
-14.19,-221.31,-33.336
-14.16,-223.276,-33.759
-14.13,-225.311,-34.286
-14.09,-227.838,-34.676
-14.06,-230.435,-34.813
-14.03,-232.471,-34.997
-13.99,-234.717,-35.443
-13.96,-237.279,-35.833
-13.93,-239.314,-36.154
-13.9,-241.315,-36.452
-13.86,-243.771,-36.6
-13.83,-245.842,-36.841
-13.8,-246.719,-37.196
-13.77,-247.211,-37.586
-13.73,-248.264,-37.872
-13.7,-250.229,-38.055
-13.67,-252.089,-38.25
-13.64,-252.931,-38.422
-13.6,-253.528,-38.811
-13.57,-255.563,-39.167
-13.54,-257.985,-39.258
-13.51,-259.213,-39.396
-13.47,-259.915,-39.785
-13.44,-261.6,-39.98
-13.41,-262.723,-39.797
-13.38,-263.039,-39.991
-13.34,-264.267,-40.392
-13.31,-266.267,-40.438
-13.28,-267.636,-40.61
-13.25,-268.935,-41.137
-13.21,-270.724,-41.309
-13.18,-272.128,-41.343
-13.15,-273.497,-41.446
-13.12,-274.725,-41.412
-13.08,-276.059,-41.515
-13.05,-277.252,-41.687
-13.02,-278.094,-42.019
-12.99,-279.428,-42.191
-12.95,-280.481,-42.134
-12.92,-281.042,-42.271
-12.89,-281.639,-42.248
-12.86,-282.201,-41.985
-12.82,-282.13,-42.088
-12.79,-281.639,-42.729
-12.76,-282.341,-43.176
-12.73,-283.359,-43.268
-12.69,-283.534,-43.554
-12.66,-283.78,-43.772
-12.63,-284.131,-43.6
-12.6,-284.412,-43.439
-12.56,-284.377,-43.371
-12.53,-284.517,-43.371
-12.5,-284.903,-43.439
-12.47,-285.605,-43.531
-12.43,-285.745,-43.554
-12.4,-285.324,-43.669
-12.37,-285.429,-43.462
-12.34,-285.535,-42.935
-12.3,-284.692,-42.431
-12.27,-283.71,-42.454
-12.24,-283.885,-42.466
-12.2,-284.131,-42.294
-12.17,-283.499,-42.065
-12.14,-282.201,-41.985
-12.11,-281.253,-41.824
-12.07,-280.902,-41.549
-12.04,-277.182,-39.636
-12.01,-267.075,-36.291
-11.98,-258.195,-34.894
-11.94,-257.774,-34.458
-11.91,-257.774,-33.336
-11.88,-251.247,-33.313
-11.85,-244.754,-34.619
-11.81,-244.649,-35.512
-11.78,-247.913,-35.89
-11.75,-248.299,-37.013
-11.72,-247.211,-38.605
-11.68,-248.299,-39.797
-11.65,-252.124,-40.713
-11.62,-255.002,-41.446
-11.59,-254.756,-41.744
-11.55,-253.282,-41.526
-11.52,-253.668,-40.919
-11.49,-254.932,-40.266
-11.46,-255.142,-39.865
-11.42,-253.914,-39.659
-11.39,-252.826,-39.419
-11.36,-252.791,-38.914
-11.33,-251.878,-38.25
-11.29,-249.948,-37.792
-11.26,-248.369,-37.402
-11.23,-247.597,-36.83
-11.2,-246.193,-36.188
-11.16,-244.017,-35.821
-11.13,-242.262,-35.512
-11.1,-240.578,-35.157
-11.07,-238.472,-34.802
-11.03,-236.191,-34.458
-11.0,-234.471,-34.16
-10.97,-232.962,-33.817
-10.94,-230.786,-33.519
-10.9,-228.189,-33.359
-10.87,-226.013,-33.267
-10.84,-224.715,-33.049
-10.81,-222.925,-32.625
-10.77,-220.573,-32.339
-10.74,-218.362,-32.202
-10.71,-216.327,-31.846
-10.68,-214.151,-31.571
-10.64,-211.975,-31.411
-10.61,-210.641,-31.125
-10.58,-209.203,-30.632
-10.55,-206.921,-30.162
-10.51,-204.219,-29.739
-10.48,-201.762,-29.418
-10.45,-199.832,-29.131
-10.41,-198.323,-28.776
-10.38,-196.463,-28.387
-10.35,-194.252,-28.146
-10.32,-192.322,-27.826
-10.28,-190.286,-27.253
-10.25,-187.303,-26.806
-10.22,-184.531,-26.634
-10.19,-182.846,-26.233
-10.15,-181.021,-25.672
-10.12,-178.529,-25.328
-10.09,-175.862,-25.076
-10.06,-173.405,-24.664
-10.02,-171.124,-23.965
-9.99,-168.211,-23.335
-9.96,-164.948,-22.991
-9.93,-162.561,-22.533
-9.89,-160.21,-21.949
-9.86,-156.946,-21.491
-9.83,-153.717,-21.227
-9.8,-151.12,-20.757
-9.76,-148.277,-20.059
-9.73,-144.592,-19.406
-9.7,-140.697,-18.959
-9.67,-137.608,-18.581
-9.63,-135.257,-17.962
-9.6,-132.274,-17.39
-9.57,-128.94,-17.149
-9.54,-126.132,-16.885
-9.5,-123.605,-16.313
-9.47,-120.377,-15.694
-9.44,-117.113,-15.27
-9.41,-114.165,-14.869
-9.37,-111.217,-14.377
-9.34,-107.988,-13.964
-9.31,-104.654,-13.689
-9.28,-102.022,-13.3
-9.24,-99.074,-12.67
-9.21,-95.529,-12.063
-9.18,-92.055,-11.593
-9.15,-89.563,-11.02
-9.11,-86.72,-10.344
-9.08,-82.86,-9.863
-9.05,-79.28,-9.565
-9.02,-76.508,-9.13
-8.98,-73.138,-8.5
-8.95,-68.716,-8.111
-8.92,-65.207,-7.881
-8.89,-62.75,-7.286
-8.85,-59.767,-6.541
-8.82,-55.907,-6.083
-8.79,-52.222,-5.854
-8.75,-49.203,-5.373
-8.72,-45.905,-4.628
-8.69,-41.798,-4.021
-8.66,-37.657,-3.677
-8.62,-34.674,-3.872
-8.59,-34.92,-4.937
-8.56,-34.674,-4.525
-8.53,-27.234,-1.879
-8.49,-17.302,-1.168
-8.46,-13.266,-0.79
-8.43,-8.072,0.252
-8.4,-1.825,-0.344
-8.36,0.246,-0.367
-8.33,0.877,1.1
-8.3,1.93,2.509
-8.27,5.194,2.921
-8.23,8.318,3.757
-8.2,11.09,5.052
-8.17,13.196,6.003
-8.14,17.232,7.492
-8.1,23.338,8.523
-8.07,27.515,9.153
-8.04,30.147,9.921
-8.01,33.832,10.665
-7.97,38.885,10.608
-7.94,42.57,10.218
-7.91,45.132,10.459
-7.88,49.133,10.757
-7.84,53.696,10.551
-7.81,56.679,10.482
-7.78,59.135,11.078
-7.75,62.891,11.627
-7.71,66.856,11.776
-7.68,69.348,12.086
-7.65,71.91,12.842
-7.62,75.946,13.311
-7.58,79.42,13.495
-7.55,81.842,14.033
-7.52,85.106,14.675
-7.49,89.317,15.007
-7.45,92.23,15.11
-7.42,94.511,15.648
-7.39,97.81,16.233
-7.36,101.776,16.439
-7.32,104.759,16.679
-7.29,106.9,17.401
-7.26,110.269,18.214
-7.23,113.884,18.615
-7.19,116.656,19.028
-7.16,119.078,19.612
-7.13,121.991,20.162
-7.1,124.763,20.505
-7.06,127.325,20.998
-7.03,130.695,21.559
-7.0,134.415,22.018
-6.96,137.784,22.43
-6.93,140.381,22.957
-6.9,142.978,23.553
-6.87,146.417,23.896
-6.83,149.611,23.988
-6.8,151.822,24.309
-6.77,154.208,24.939
-6.74,157.683,25.317
-6.7,160.771,25.374
-6.67,163.158,25.672
-6.64,165.825,26.05
-6.61,169.089,26.164
-6.57,171.37,26.107
-6.54,172.668,26.588
-6.51,175.476,27.264
-6.48,179.021,27.551
-6.44,181.021,27.86
-6.41,182.355,28.593
-6.38,185.303,29.086
-6.35,188.461,28.948
-6.31,189.9,29.017
-6.28,191.444,29.624
-6.25,194.638,30.002
-6.22,197.27,30.014
-6.18,198.639,30.22
-6.15,200.639,30.689
-6.12,203.236,30.793
-6.09,204.956,30.85
-6.05,206.255,31.193
-6.02,208.43,31.571
-5.99,210.782,31.789
-5.96,212.537,32.087
-5.92,214.256,32.58
-5.89,216.222,33.118
-5.86,217.731,33.53
-5.83,219.485,33.897
-5.79,221.696,34.241
-5.76,223.662,34.653
-5.73,225.768,35.077
-5.7,228.049,35.34
-5.66,230.225,35.558
-5.63,232.12,35.81
-5.6,233.769,36.028
-5.57,235.419,36.211
-5.53,237.665,36.44
-5.5,239.735,36.646
-5.47,241.455,36.979
-5.44,243.069,37.311
-5.4,244.754,37.597
-5.37,246.754,37.883
-5.34,248.825,38.136
-5.31,250.299,38.284
-5.27,251.562,38.479
-5.24,253.458,38.708
-5.21,255.528,38.766
-5.17,256.897,38.788
-5.14,257.95,39.006
-5.11,259.564,39.315
-5.08,261.459,39.35
-5.04,262.126,39.407
-5.01,262.617,39.877
-4.98,264.197,40.094
-4.95,265.987,40.014
-4.91,266.794,40.484
-4.88,267.25,41.526
-4.85,268.724,42.053
-4.82,270.093,42.03
-4.78,271.075,42.271
-4.75,272.234,42.615
-4.72,273.743,42.775
-4.69,275.041,42.867
-4.65,276.199,43.233
-4.62,277.463,43.531
-4.59,278.867,43.565
-4.56,279.639,43.508
-4.52,280.13,43.623
-4.49,281.007,43.611
-4.46,281.604,43.508
-4.43,281.99,43.68
-4.39,282.903,43.875
-4.36,283.815,43.783
-4.33,283.885,43.898
-4.3,284.271,43.875
-4.26,284.377,43.497
-4.23,284.517,43.6
-4.2,284.903,43.382
-4.17,285.149,43.531
-4.13,285.57,43.646
-4.1,285.535,43.359
-4.07,285.149,43.313
-4.04,285.5,43.21
-4.0,285.675,42.878
-3.97,284.798,42.603
-3.94,284.026,42.477
-3.91,283.604,42.466
-3.87,283.569,42.443
-3.84,283.183,42.351
-3.81,281.393,42.534
-3.78,280.305,42.729
-3.74,280.06,42.523
-3.71,279.042,42.386
-3.68,277.744,42.466
-3.65,277.182,42.443
-3.61,276.62,42.294
-3.58,275.673,42.214
-3.55,274.69,42.065
-3.52,273.708,41.687
-3.48,272.163,41.24
-3.45,270.514,40.976
-3.42,269.25,40.656
-3.38,268.163,40.369
-3.35,266.934,40.175
-3.32,265.285,40.037
-3.29,263.741,39.842
-3.25,262.091,39.567
-3.22,260.828,39.304
-3.19,259.424,39.075
-3.16,257.88,38.937
-3.12,256.371,38.8
-3.09,255.107,38.536
-3.06,253.528,38.239
-3.03,251.808,37.952
-2.99,250.194,37.551
-2.96,248.369,37.208
-2.93,246.614,36.864
-2.9,244.824,36.44
-2.86,242.824,36.005
-2.83,240.858,35.741
-2.8,239.384,35.501
-2.77,237.489,35.18
-2.73,234.787,35.008
-2.7,232.892,35.031
-2.67,231.734,34.653
-2.64,229.488,34.286
-2.6,227.277,34.183
-2.57,225.697,34.046
-2.54,224.574,33.863
-2.51,222.96,33.473
-2.47,220.433,33.118
-2.44,218.082,32.866
-2.41,216.187,32.419
-2.38,213.905,32.03
-2.34,211.624,31.961
-2.31,210.045,31.812
-2.28,208.43,31.377
-2.25,206.325,31.056
-2.21,204.149,30.77
-2.18,202.324,30.472
-2.15,200.885,29.991
-2.12,198.674,29.498
-2.08,196.674,29.464
-2.05,195.691,29.315
-2.02,194.077,28.834
-1.99,191.129,28.41
-1.95,188.496,28.089
-1.92,187.057,27.631
-1.89,185.233,27.012
-1.86,182.179,26.416
-1.82,179.161,26.313
-1.79,177.336,26.21
-1.76,175.652,25.706
-1.72,172.739,25.042
-1.69,169.58,24.652
-1.66,167.369,24.171
-1.63,164.807,23.438
-1.59,161.227,22.831
-1.56,158.56,22.716
-1.53,156.876,22.155
-1.5,154.77,21.743
-1.46,151.682,21.135
-1.43,148.453,20.929
-1.4,145.786,20.402
-1.37,142.276,19.566
-1.33,138.38,19.165
-1.3,135.327,18.776
-1.27,133.081,18.283
-1.24,130.098,17.733
-1.2,126.413,17.493
-1.17,123.64,17.172
-1.14,120.692,16.507
-1.11,117.148,15.98
-1.07,114.059,15.625
-1.04,111.322,15.167
-1.01,108.514,14.571
-0.98,105.215,14.01
-0.94,101.706,13.575
-0.91,98.618,13.105
-0.88,95.634,12.361
-0.85,91.704,11.799
-0.81,87.878,11.478
-0.78,85.001,11.032
-0.75,82.088,10.39
-0.72,78.368,9.921
-0.68,74.823,9.634
-0.65,71.91,9.13
-0.62,68.857,8.42
-0.59,65.663,7.755
-0.55,62.189,7.251
-0.52,59.065,6.816
-0.49,55.977,6.255
-0.46,52.397,5.762
-0.42,48.186,5.43
-0.39,44.36,5.189
-0.36,41.096,4.72
-0.33,37.482,4.25
-0.29,34.814,4.445
-0.26,35.411,5.579
-0.23,35.797,5.075
-0.2,28.813,2.314
-0.16,18.741,1.432
-0.13,14.143,0.951
-0.1,8.563,-0.229
-0.07,1.895,0.195
-0.03,-0.211,0.092
0.0,-0.737,-1.466
0.03,-2.211,-2.726
0.07,-5.545,-3.047
0.1,-8.388,-3.952
0.13,-10.844,-5.178
0.16,-13.652,-6.507
0.2,-18.671,-7.721
0.23,-23.759,-8.305
0.26,-27.234,-8.741
0.29,-30.357,-9.416
0.33,-35.095,-9.84
0.36,-39.482,-9.817
0.39,-42.29,-9.966
0.42,-44.887,-10.47
0.46,-49.554,-10.734
0.49,-54.152,-10.573
0.52,-56.995,-10.791
0.55,-60.188,-11.478
0.59,-64.505,-11.811
0.62,-67.839,-11.799
0.65,-69.629,-12.189
0.68,-72.226,-12.91
0.72,-76.437,-13.288
0.75,-79.561,-13.243
0.78,-81.245,-13.758
0.81,-84.299,-14.617
0.85,-88.545,-14.949
0.88,-92.125,-14.972
0.91,-94.476,-15.396
0.94,-97.354,-16.061
0.98,-101.144,-16.45
1.01,-103.882,-16.714
1.04,-106.198,-17.435
1.07,-109.251,-18.249
1.11,-112.831,-18.947
1.14,-116.13,-19.486
1.17,-119.254,-19.898
1.2,-122.658,-20.505
1.24,-125.887,-20.792
1.27,-128.343,-20.987
1.3,-131.116,-21.33
1.33,-134.731,-21.72
1.37,-138.275,-22.052
1.4,-141.048,-22.419
1.43,-143.715,-22.945
1.46,-146.698,-23.346
1.5,-149.155,-23.587
1.53,-151.471,-23.965
1.56,-154.665,-24.481
1.59,-158.209,-24.893
1.63,-160.596,-25.328
1.66,-162.666,-25.89
1.69,-165.895,-26.348
1.72,-169.194,-26.52
1.76,-171.616,-26.829
1.79,-174.213,-27.276
1.82,-177.231,-27.585
1.86,-179.758,-27.86
1.89,-182.32,-28.261
1.92,-185.233,-28.49
1.95,-187.619,-28.605
1.99,-189.374,-28.765
2.02,-191.339,-29.04
2.05,-193.55,-29.372
2.08,-196.252,-30.025
2.12,-199.2,-30.77
2.15,-201.587,-31.239
2.18,-203.377,-31.526
2.21,-205.026,-31.743
2.25,-207.097,-31.915
2.28,-209.448,-31.915
2.31,-211.098,-31.915
2.34,-212.08,-32.167
2.38,-213.414,-32.499
2.41,-215.625,-32.717
2.44,-217.59,-32.923
2.47,-218.924,-33.301
2.51,-220.468,-33.519
2.54,-221.802,-33.599
2.57,-223.065,-33.977
2.6,-225.241,-34.424
2.64,-227.628,-34.481
2.67,-228.645,-34.584
2.7,-229.558,-34.951
2.73,-231.242,-35.134
2.77,-233.208,-35.329
2.8,-234.682,-35.352
2.83,-235.594,-35.524
2.86,-237.068,-36.074
2.9,-239.525,-36.383
2.93,-241.982,-36.692
2.96,-243.982,-37.185
2.99,-246.053,-37.631
3.03,-247.878,-37.929
3.06,-249.632,-38.25
3.09,-251.878,-38.456
3.12,-253.879,-38.594
3.16,-254.581,-38.983
3.19,-255.247,-39.705
3.22,-257.529,-40.243
3.25,-260.161,-40.266
3.29,-261.003,-40.22
3.32,-261.459,-40.759
3.35,-263.425,-41.045
3.38,-265.144,-40.759
3.42,-265.811,-41.229
3.45,-267.25,-41.904
3.48,-269.18,-41.893
3.52,-270.374,-42.019
3.55,-271.953,-42.466
3.58,-273.602,-42.466
3.61,-274.445,-42.282
3.65,-275.462,-42.512
3.68,-276.796,-42.546
3.71,-277.849,-42.752
3.74,-279.077,-42.993
3.78,-280.095,-43.061
3.81,-280.832,-43.119
3.84,-281.534,-43.21
3.87,-282.411,-43.016
3.91,-282.938,-42.855
3.94,-283.464,-42.981
3.97,-284.201,-42.947
4.0,-284.482,-42.89
4.04,-284.622,-43.027
4.07,-284.798,-42.798
4.1,-284.833,-42.809
4.13,-284.201,-43.302
4.17,-283.85,-43.611
4.2,-283.92,-43.714
4.23,-284.026,-43.817
4.26,-284.061,-43.966
4.3,-284.061,-43.966
4.33,-283.955,-43.749
4.36,-283.359,-43.634
4.39,-282.832,-43.588
4.43,-283.008,-43.417
4.46,-282.727,-43.245
4.49,-282.06,-43.13
4.52,-281.113,-42.901
4.56,-279.674,-42.454
4.59,-278.305,-41.813
4.62,-276.62,-41.251
4.65,-275.217,-40.908
4.69,-274.164,-40.816
4.72,-273.322,-40.885
4.75,-272.234,-40.999
4.78,-271.637,-41.091
4.82,-271.216,-41.034
4.85,-270.444,-41.057
4.88,-269.847,-41.171
4.91,-269.531,-41.148
4.95,-269.11,-41.103
4.98,-268.654,-41.091
5.01,-268.233,-40.931
5.04,-267.496,-40.656
5.08,-266.232,-40.358
5.11,-264.828,-39.991
5.14,-262.933,-39.659
5.17,-261.038,-39.453
5.21,-259.74,-39.235
5.24,-258.371,-38.892
5.27,-256.3,-38.548
5.31,-254.37,-38.227
5.34,-252.545,-37.677
5.37,-250.369,-37.024
5.4,-248.053,-36.623
5.44,-245.807,-36.291
5.47,-243.631,-35.902
5.5,-241.315,-35.501
5.53,-239.069,-35.1
5.57,-237.103,-34.871
5.6,-235.243,-34.504
5.63,-232.997,-34.126
5.66,-230.611,-33.897
5.7,-228.786,-33.748
5.73,-227.347,-33.45
5.76,-225.487,-33.129
5.79,-223.276,-32.923
5.83,-221.486,-32.625
5.86,-219.696,-32.224
5.89,-217.625,-31.915
5.92,-215.695,-31.571
5.96,-213.66,-31.136
5.99,-211.273,-30.873
6.02,-209.378,-30.781
6.05,-208.185,-30.518
6.09,-206.535,-30.071
6.12,-204.219,-29.704
6.15,-201.797,-29.498
6.18,-200.429,-29.063
6.22,-198.639,-28.456
6.25,-196.077,-28.261
6.28,-193.936,-28.261
6.31,-192.357,-27.963
6.35,-190.321,-27.539
6.38,-188.04,-27.23
6.41,-186.11,-26.932
6.44,-184.32,-26.325
6.48,-181.828,-25.741
6.51,-178.635,-25.557
6.54,-176.459,-25.42
6.57,-174.774,-24.87
6.61,-172.247,-24.389
6.64,-169.65,-24.068
6.67,-167.088,-23.679
6.7,-164.632,-23.06
6.74,-161.894,-22.419
6.77,-159.262,-22.052
6.8,-156.735,-21.559
6.83,-154.068,-21.296
6.87,-151.717,-20.987
6.9,-148.663,-20.322
6.93,-145.294,-20.093
6.96,-142.978,-19.658
7.0,-140.311,-18.867
7.03,-136.801,-18.398
7.06,-133.607,-17.997
7.1,-130.835,-17.367
7.13,-127.641,-16.645
7.16,-123.991,-16.129
7.19,-120.622,-15.717
7.23,-117.393,-15.19
7.26,-114.2,-14.675
7.29,-111.182,-14.148
7.32,-107.883,-13.666
7.36,-104.443,-13.311
7.39,-100.969,-12.968
7.42,-97.74,-12.487
7.45,-94.933,-11.788
7.49,-91.914,-11.043
7.52,-88.264,-10.631
7.55,-84.615,-10.379
7.58,-81.491,-9.966
7.62,-78.508,-9.336
7.65,-75.385,-8.821
7.68,-72.156,-8.5
7.71,-68.681,-8.111
7.75,-65.242,-7.549
7.78,-61.662,-6.954
7.81,-58.293,-6.495
7.84,-55.064,-6.083
7.88,-51.73,-5.625
7.91,-47.729,-5.224
7.94,-44.36,-4.834
7.97,-41.342,-4.078
8.01,-37.587,-3.391
8.04,-33.727,-3.643
8.07,-33.691,-5.121
8.1,-33.937,-4.605
8.14,-26.357,-1.764
8.17,-16.249,-1.283
8.2,-13.091,-0.768
8.23,-7.826,0.619
8.27,-1.439,-0.057
8.3,0.246,-0.069
8.33,1.018,1.478
8.36,2.527,2.772
8.4,6.001,3.024
8.43,8.633,3.987
8.46,11.441,5.373
8.49,14.038,6.106
8.53,17.793,7.263
8.56,22.847,8.511
8.59,27.866,9.233
8.62,31.551,9.668
8.66,35.13,10.356
8.69,40.114,10.631
8.72,44.395,10.379
8.75,46.501,10.482
8.79,49.484,11.032
8.82,54.257,11.146
8.85,58.293,10.997
8.89,60.82,11.364
8.92,63.768,12.063
8.95,68.12,12.269
8.98,71.243,12.189
9.02,73.033,12.693
9.05,76.227,13.346
9.08,80.403,13.552
9.11,83.597,13.609
9.15,85.983,14.125
9.18,89.423,14.709
9.21,93.459,14.846
9.24,96.056,14.904
9.28,97.67,15.534
9.31,100.758,16.198
9.34,104.128,16.542
9.37,106.584,17.046
9.41,109.392,17.894
9.44,113.217,18.569
9.47,116.797,18.844
9.5,119.394,19.016
9.54,121.851,19.635
9.57,125.255,20.116
9.6,128.133,20.483
9.63,130.87,21.147
9.67,134.134,21.548
9.7,137.503,21.892
9.73,140.486,22.407
9.76,143.504,22.968
9.8,146.873,23.323
9.83,149.716,23.495
9.86,152.173,23.828
9.89,155.051,24.297
9.93,158.174,24.618
9.96,160.806,24.973
9.99,163.474,25.385
10.02,166.071,25.741
10.06,168.457,26.13
10.09,170.844,26.6
10.12,173.441,27.081
10.15,176.389,27.47
10.19,179.266,27.826
10.22,181.969,28.158
10.25,184.39,28.501
10.28,187.128,28.627
10.32,189.023,28.65
10.35,190.497,28.822
10.38,192.848,29.074
10.41,195.515,29.212
10.45,197.06,29.567
10.48,198.674,30.048
10.51,201.06,30.277
10.55,203.166,30.254
10.58,204.64,30.403
10.61,206.149,30.85
10.64,208.43,31.205
10.68,210.747,31.365
10.71,212.115,31.675
10.74,213.73,32.293
10.77,216.362,32.694
10.81,218.398,32.602
10.84,218.959,32.786
10.87,220.538,33.359
10.9,223.662,33.507
10.94,225.592,33.553
10.97,226.715,34.057
11.0,229.277,34.538
11.03,232.26,34.504
11.07,232.927,34.664
11.1,232.857,35.409
11.13,235.208,36.222
11.16,238.507,36.417
11.2,239.771,36.726
11.23,240.648,37.54
11.26,243.456,37.849
11.29,246.158,37.838
11.33,247.842,38.181
11.36,249.738,38.594
11.39,251.703,38.754
11.42,253.458,38.8
11.46,255.247,39.075
11.49,257.143,39.293
11.52,258.511,39.567
11.55,260.301,39.774
11.59,261.845,39.762
11.62,262.477,39.774
11.65,263.179,39.934
11.68,264.899,40.003
11.72,266.548,39.991
11.75,267.776,40.392
11.78,269.18,40.759
11.81,270.444,40.965
11.85,271.812,41.045
11.88,272.69,40.885
11.91,273.602,41.022
11.94,274.901,41.286
11.98,275.954,41.503
12.01,277.393,41.675
12.04,278.094,41.847
12.07,277.954,42.832
12.11,278.761,43.451
12.14,279.639,43.348
12.17,279.99,43.439
12.2,280.586,43.669
12.24,281.288,43.772
12.27,282.095,43.909
12.3,283.078,43.875
12.34,283.183,43.875
12.37,283.078,44.115
12.4,284.061,43.966
12.43,284.412,43.554
12.47,283.99,43.588
12.5,284.587,43.646
12.53,285.429,43.497
12.56,285.254,43.451
12.6,284.868,43.462
12.63,284.763,43.268
12.66,284.727,43.107
12.69,284.622,42.89
12.73,283.92,42.626
12.76,283.113,42.683
12.79,283.64,42.729
12.82,283.92,42.42
12.86,282.973,42.26
12.89,281.709,42.248
12.92,281.113,42.099
12.95,280.446,41.767
12.99,279.604,41.458
13.02,278.305,41.446
13.05,277.884,41.423
13.08,276.936,41.103
13.12,274.725,41.125
13.15,273.146,41.183
13.18,272.234,40.896
13.21,270.83,40.472
13.25,269.075,40.278
13.28,267.706,40.22
13.31,266.794,40.049
13.34,265.215,39.888
13.38,263.705,39.819
13.41,262.653,39.602
13.44,261.424,39.258
13.47,259.529,39.018
13.51,258.371,38.754
13.54,257.143,38.319
13.57,255.142,38.044
13.6,253.458,37.78
13.64,251.913,37.299
