Trigger_Date,2023/08/25
Trigger_Time,T 11:52:05.688 PDT
Samples_Per_Cycle,512
Microseconds_Per_Sample,32.545
Time (ms),Voltage (V),Current (A)
-16.66,4.843,0.298
-16.63,4.808,0.332
-16.6,8.037,0.813
-16.57,12.073,0.676
-16.53,14.214,0.985
-16.5,18.39,1.707
-16.47,23.514,2.486
-16.44,29.305,2.99
-16.4,34.042,3.07
-16.37,36.78,3.356
-16.34,38.113,4.239
-16.31,39.798,5.247
-16.27,42.43,5.808
-16.24,45.343,5.888
-16.21,48.08,5.762
-16.18,50.888,5.785
-16.14,54.152,6.152
-16.11,57.942,6.621
-16.08,62.048,7.125
-16.04,65.804,7.767
-16.01,69.243,8.557
-15.98,72.682,9.439
-15.95,76.086,10.207
-15.91,79.385,10.734
-15.88,82.404,11.215
-15.85,85.457,11.753
-15.82,88.791,12.223
-15.78,92.02,12.578
-15.75,95.284,12.991
-15.72,98.477,13.472
-15.69,101.881,13.941
-15.65,105.251,14.445
-15.62,108.514,14.984
-15.59,111.813,15.683
-15.56,115.077,16.198
-15.52,118.166,16.645
-15.49,120.903,17.057
-15.46,124.062,17.699
-15.43,127.396,18.237
-15.39,130.695,18.547
-15.36,134.029,19.257
-15.33,137.398,19.852
-15.3,140.942,20.437
-15.26,144.136,21.113
-15.23,147.084,21.64
-15.2,149.927,22.166
-15.17,153.085,22.762
-15.13,156.209,23.209
-15.1,159.122,23.495
-15.07,161.789,23.862
-15.04,164.632,24.309
-15.0,167.615,24.652
-14.97,170.457,24.985
-14.94,173.195,25.374
-14.91,175.792,25.706
-14.87,178.459,26.096
-14.84,181.302,26.531
-14.81,183.934,26.898
-14.78,186.32,27.207
-14.74,188.637,27.562
-14.71,191.023,27.837
-14.68,193.234,27.997
-14.65,195.27,28.181
-14.61,197.2,28.41
-14.58,199.271,28.582
-14.55,201.552,28.845
-14.52,203.798,29.028
-14.48,205.693,29.2
-14.45,207.307,29.475
-14.42,209.343,29.842
-14.39,211.519,30.162
-14.35,213.695,30.46
-14.32,215.59,30.804
-14.29,217.52,31.193
-14.25,219.591,31.629
-14.22,221.661,31.984
-14.19,223.381,32.259
-14.16,224.995,32.66
-14.12,227.066,33.095
-14.09,229.172,33.381
-14.06,231.102,33.656
-14.03,232.787,33.954
-13.99,234.752,34.39
-13.96,236.647,34.802
-13.93,238.261,35.008
-13.9,239.735,35.34
-13.86,241.49,35.787
-13.83,243.35,36.131
-13.8,245.105,36.348
-13.77,246.649,36.738
-13.73,248.158,37.036
-13.7,249.562,37.196
-13.67,250.861,37.425
-13.64,252.545,37.712
-13.6,254.089,37.861
-13.57,255.318,38.09
-13.54,256.827,38.514
-13.51,258.652,38.846
-13.47,260.371,39.201
-13.44,261.916,39.739
-13.41,263.179,40.026
-13.38,264.442,40.266
-13.34,265.846,40.656
-13.31,267.496,41.011
-13.28,269.075,41.24
-13.25,270.303,41.526
-13.21,271.321,41.893
-13.18,272.549,42.179
-13.15,273.883,42.26
-13.12,274.936,42.386
-13.08,275.883,42.66
-13.05,276.971,42.912
-13.02,278.13,43.119
-12.99,279.288,43.325
-12.95,280.341,43.497
-12.92,281.113,43.611
-12.89,281.744,43.772
-12.86,282.552,43.875
-12.82,283.113,43.852
-12.79,283.71,43.943
-12.76,284.587,44.115
-12.73,285.324,44.287
-12.69,285.5,44.127
-12.66,285.886,44.241
-12.63,286.272,44.356
-12.6,286.482,44.241
-12.56,286.377,44.081
-12.53,286.272,43.955
-12.5,286.623,43.898
-12.46,286.728,43.76
-12.43,286.552,43.737
-12.4,286.588,43.795
-12.37,286.447,43.737
-12.33,286.342,43.669
-12.3,286.166,43.543
-12.27,285.921,43.508
-12.24,285.71,43.462
-12.2,285.535,43.611
-12.17,285.184,43.554
-12.14,284.306,43.302
-12.11,283.604,43.107
-12.07,283.183,42.993
-12.04,282.306,42.66
-12.01,281.042,42.305
-11.98,280.095,42.282
-11.94,279.849,42.305
-11.91,279.112,42.076
-11.88,277.814,41.847
-11.85,276.726,41.733
-11.81,275.743,41.423
-11.78,274.55,41.251
-11.75,273.216,40.988
-11.72,271.742,40.736
-11.68,270.444,40.507
-11.65,269.25,40.335
-11.62,267.952,40.094
-11.59,266.338,39.865
-11.55,264.899,39.579
-11.52,263.565,39.293
-11.49,262.091,39.029
-11.46,260.477,38.788
-11.42,258.862,38.514
-11.39,257.178,38.307
-11.36,255.493,38.09
-11.33,254.019,37.815
-11.29,252.194,37.563
-11.26,250.194,37.311
-11.23,248.299,37.139
-11.2,246.754,36.944
-11.16,245.07,36.658
-11.13,243.245,36.44
-11.1,241.595,36.348
-11.07,239.911,36.234
-11.03,237.946,36.039
-11.0,236.296,35.936
-10.97,234.752,35.867
-10.94,233.032,35.638
-10.9,231.067,35.443
-10.87,229.137,35.295
-10.84,227.171,35.1
-10.81,225.241,34.79
-10.77,223.1,34.447
-10.74,220.959,34.149
-10.71,218.819,33.84
-10.67,216.924,33.53
-10.64,214.783,33.267
-10.61,212.712,33.061
-10.58,210.712,32.855
-10.54,208.711,32.602
-10.51,206.5,32.328
-10.48,204.359,32.098
-10.45,202.289,31.812
-10.41,200.043,31.48
-10.38,197.726,31.274
-10.35,195.586,31.033
-10.32,193.41,30.655
-10.28,190.988,30.254
-10.25,188.286,29.933
-10.22,185.583,29.578
-10.19,183.197,29.177
-10.15,180.916,28.776
-10.12,178.389,28.307
-10.09,175.546,27.906
-10.06,172.774,27.505
-10.02,170.212,27.058
-9.99,167.685,26.577
-9.96,164.632,26.016
-9.93,161.543,25.5
-9.89,158.49,25.111
-9.86,155.437,24.435
-9.83,152.699,24.068
-9.8,149.857,23.587
-9.76,147.119,23.175
-9.73,144.031,22.762
-9.7,140.907,22.155
-9.67,137.749,21.857
-9.63,134.906,21.422
-9.6,132.169,20.906
-9.57,128.975,20.379
-9.54,125.36,19.818
-9.5,121.851,19.337
-9.47,118.762,18.902
-9.44,115.814,18.272
-9.41,112.515,17.55
-9.37,109.006,17.057
-9.34,105.637,16.611
-9.31,102.478,16.106
-9.28,99.46,15.66
-9.24,96.231,15.167
-9.21,92.862,14.663
-9.18,89.528,14.285
-9.15,86.44,13.827
-9.11,83.105,13.311
-9.08,79.701,12.876
-9.05,76.437,12.475
-9.02,73.454,11.96
-8.98,70.261,11.582
-8.95,67.032,11.169
-8.92,63.593,10.642
-8.88,60.223,10.173
-8.85,56.96,9.909
-8.82,54.117,9.394
-8.79,50.572,8.752
-8.75,46.782,8.191
-8.72,42.851,7.767
-8.69,40.851,6.828
-8.66,43.202,4.536
-8.62,47.098,0.0
-8.59,35.797,-2.234
-8.56,25.9,-0.229
-8.53,27.304,-0.092
-8.49,22.917,-0.997
-8.46,15.582,-0.962
-8.43,8.633,-0.894
-8.4,2.948,-0.722
-8.36,-1.334,-0.573
-8.33,-3.334,-0.218
-8.3,-3.896,-0.344
-8.27,-6.808,-0.561
-8.23,-9.195,-0.733
-8.2,-12.038,-1.226
-8.17,-16.881,-1.501
-8.14,-21.724,-1.936
-8.1,-27.164,-2.451
-8.07,-32.358,-2.807
-8.04,-36.85,-3.013
-8.01,-39.342,-3.288
-7.97,-40.535,-3.918
-7.94,-41.904,-4.88
-7.91,-44.536,-5.59
-7.88,-47.765,-5.648
-7.84,-50.783,-5.579
-7.81,-53.801,-5.797
-7.78,-57.346,-6.255
-7.75,-61.241,-6.828
-7.71,-65.347,-7.549
-7.68,-69.489,-8.374
-7.65,-73.244,-9.222
-7.62,-76.788,-10.081
-7.58,-80.122,-10.757
-7.55,-83.351,-11.398
-7.52,-86.58,-12.051
-7.49,-89.598,-12.487
-7.45,-92.581,-12.842
-7.42,-95.775,-13.254
-7.39,-99.109,-13.644
-7.36,-102.513,-13.999
-7.32,-105.847,-14.48
-7.29,-109.216,-14.938
-7.26,-112.41,-15.431
-7.23,-115.569,-16.072
-7.19,-118.762,-16.633
-7.16,-122.026,-17.046
-7.13,-125.325,-17.71
-7.09,-128.448,-18.18
-7.06,-131.467,-18.65
-7.03,-134.52,-19.28
-7.0,-137.784,-19.841
-6.96,-141.223,-20.322
-6.93,-144.136,-20.643
-6.9,-146.628,-20.849
-6.87,-149.084,-21.296
-6.83,-151.997,-21.834
-6.8,-155.121,-22.132
-6.77,-157.999,-22.35
-6.74,-160.806,-22.819
-6.7,-163.754,-23.415
-6.67,-166.808,-23.85
-6.64,-169.65,-24.274
-6.61,-172.142,-24.824
-6.57,-174.774,-25.271
-6.54,-177.512,-25.683
-6.51,-180.319,-26.073
-6.48,-183.057,-26.565
-6.44,-185.443,-26.817
-6.41,-187.444,-27.012
-6.38,-189.549,-27.344
-6.35,-192.216,-27.848
-6.31,-194.989,-28.169
-6.28,-197.411,-28.341
-6.25,-199.727,-28.811
-6.22,-202.429,-29.464
-6.18,-204.851,-29.762
-6.15,-206.676,-29.91
-6.12,-208.536,-30.323
-6.09,-210.501,-30.621
-6.05,-212.502,-30.724
-6.02,-214.432,-30.873
-5.99,-216.292,-31.136
-5.96,-218.257,-31.411
-5.92,-220.398,-31.72
-5.89,-222.609,-32.144
-5.86,-224.785,-32.568
-5.83,-226.961,-33.072
-5.79,-229.277,-33.725
-5.76,-231.523,-34.115
-5.73,-233.173,-34.458
-5.7,-234.857,-34.836
-5.66,-236.577,-35.134
-5.63,-238.261,-35.214
-5.6,-239.63,-35.237
-5.57,-240.753,-35.295
-5.53,-242.157,-35.547
-5.5,-244.052,-35.856
-5.47,-246.053,-36.211
-5.44,-248.018,-36.658
-5.4,-249.913,-37.185
-5.37,-251.668,-37.723
-5.34,-253.352,-38.193
-5.3,-254.861,-38.491
-5.27,-256.265,-38.731
-5.24,-257.634,-38.995
-5.21,-259.108,-39.086
-5.17,-260.161,-39.109
-5.14,-261.214,-39.258
-5.11,-262.267,-39.419
-5.08,-263.179,-39.441
-5.04,-264.232,-39.567
-5.01,-265.425,-39.785
-4.98,-266.618,-40.014
-4.95,-267.706,-40.301
-4.91,-268.829,-40.621
-4.88,-270.093,-40.77
-4.85,-271.04,-40.954
-4.82,-271.848,-41.274
-4.78,-272.9,-41.549
-4.75,-273.953,-41.801
-4.72,-275.076,-42.053
-4.69,-276.41,-42.374
-4.65,-277.708,-42.683
-4.62,-278.691,-43.142
-4.59,-279.779,-43.52
-4.56,-280.762,-43.68
-4.52,-281.569,-43.898
-4.49,-282.516,-43.966
-4.46,-283.218,-43.966
-4.43,-283.675,-44.253
-4.39,-284.201,-44.253
-4.36,-285.114,-44.436
-4.33,-285.78,-44.619
-4.3,-286.552,-44.745
-4.26,-286.903,-44.86
-4.23,-286.833,-44.7
-4.2,-286.728,-44.631
-4.17,-287.149,-44.585
-4.13,-287.149,-44.413
-4.1,-286.728,-44.184
-4.07,-286.307,-44.001
-4.04,-286.096,-43.84
-4.0,-285.64,-43.611
-3.97,-285.219,-43.394
-3.94,-284.868,-43.21
-3.91,-284.412,-43.222
-3.87,-284.096,-43.084
-3.84,-284.096,-43.107
-3.81,-283.92,-43.359
-3.78,-283.429,-43.359
-3.74,-282.481,-43.153
-3.71,-281.92,-43.073
-3.68,-281.393,-42.958
-3.65,-280.551,-42.58
-3.61,-279.288,-42.26
-3.58,-278.2,-42.145
-3.55,-277.322,-41.904
-3.51,-276.62,-41.595
-3.48,-275.357,-41.366
-3.45,-273.602,-41.022
-3.42,-272.234,-40.919
-3.38,-271.637,-40.828
-3.35,-270.654,-40.507
-3.32,-269.04,-40.232
-3.29,-267.531,-40.175
-3.25,-266.267,-40.014
-3.22,-264.969,-39.705
-3.19,-263.53,-39.464
-3.16,-261.951,-39.27
-3.12,-260.266,-39.063
-3.09,-259.003,-38.914
-3.06,-257.845,-38.8
-3.03,-256.23,-38.582
-2.99,-254.37,-38.319
-2.96,-252.615,-38.09
-2.93,-251.001,-37.918
-2.9,-249.457,-37.666
-2.86,-247.421,-37.208
-2.83,-245.035,-36.818
-2.8,-243.14,-36.692
-2.77,-241.49,-36.326
-2.73,-239.314,-35.81
-2.7,-236.928,-35.489
-2.67,-234.998,-35.398
-2.64,-233.453,-35.214
-2.6,-231.664,-34.951
-2.57,-229.768,-34.848
-2.54,-228.294,-34.882
-2.51,-226.996,-34.813
-2.47,-225.171,-34.538
-2.44,-222.89,-34.378
-2.41,-220.819,-34.355
-2.38,-219.029,-34.183
-2.34,-217.239,-33.817
-2.31,-215.028,-33.45
-2.28,-212.817,-33.233
-2.25,-210.747,-33.015
-2.21,-208.746,-32.694
-2.18,-206.535,-32.35
-2.15,-204.254,-32.064
-2.12,-202.113,-31.789
-2.08,-199.937,-31.48
-2.05,-197.621,-31.251
-2.02,-195.515,-30.907
-1.99,-193.129,-30.46
-1.95,-190.462,-30.071
-1.92,-187.9,-29.75
-1.89,-185.443,-29.361
-1.86,-182.986,-28.868
-1.82,-180.354,-28.444
-1.79,-177.722,-28.089
-1.76,-175.125,-27.631
-1.72,-172.388,-27.127
-1.69,-169.44,-26.714
-1.66,-166.632,-26.29
-1.63,-163.93,-25.764
-1.59,-160.912,-25.248
-1.56,-158.139,-24.847
-1.53,-155.577,-24.423
-1.5,-152.699,-23.908
-1.46,-149.506,-23.438
-1.43,-146.347,-23.071
-1.4,-143.504,-22.659
-1.37,-140.767,-22.224
-1.33,-137.924,-21.731
-1.3,-135.152,-21.399
-1.27,-132.098,-20.998
-1.24,-128.729,-20.368
-1.2,-125.43,-19.933
-1.17,-122.202,-19.44
-1.14,-119.043,-18.764
-1.11,-115.533,-18.031
-1.07,-111.813,-17.447
-1.04,-108.304,-16.885
-1.01,-105.11,-16.324
-0.98,-102.127,-15.797
-0.94,-99.249,-15.419
-0.91,-96.196,-15.053
-0.88,-93.108,-14.697
-0.85,-89.844,-14.297
-0.81,-86.369,-13.815
-0.78,-82.895,-13.426
-0.75,-79.701,-12.91
-0.72,-76.332,-12.292
-0.68,-72.928,-11.788
-0.65,-69.629,-11.249
-0.62,-66.4,-10.711
-0.59,-62.891,-10.161
-0.55,-59.486,-9.542
-0.52,-55.836,-9.096
-0.49,-52.538,-8.592
-0.46,-48.853,-7.973
-0.42,-45.413,-7.297
-0.39,-41.342,-6.713
-0.36,-38.429,-6.083
-0.33,-39.026,-4.594
-0.29,-44.15,-0.813
-0.26,-36.85,2.211
-0.23,-25.584,0.584
-0.2,-27.164,-0.057
-0.16,-24.11,1.02
-0.13,-16.705,1.065
-0.1,-10.107,0.882
-0.07,-4.562,0.871
-0.03,1.299,0.882
0.0,4.703,0.389
0.03,5.229,0.344
0.07,7.791,0.676
0.1,11.02,0.573
0.13,13.441,0.802
0.16,17.056,1.363
0.2,21.619,2.096
0.23,27.023,2.692
0.26,32.253,2.91
0.29,36.113,2.978
0.33,38.184,3.482
0.36,39.693,4.456
0.39,42.009,5.281
0.42,44.992,5.567
0.46,47.729,5.544
0.49,50.151,5.625
0.52,52.994,5.957
0.55,56.609,6.404
0.59,60.68,6.862
0.62,64.645,7.354
0.65,68.19,8.053
0.68,71.664,8.912
0.72,75.174,9.806
0.75,78.648,10.596
0.78,82.053,11.284
0.81,85.352,11.868
0.85,88.756,12.406
0.88,92.125,12.853
0.91,95.459,13.334
0.94,98.828,13.884
0.98,102.373,14.434
1.01,105.952,15.007
1.04,109.497,15.637
1.07,113.007,16.152
1.11,116.411,16.771
1.14,119.604,17.412
1.17,122.763,17.905
1.2,125.711,18.398
1.24,128.729,18.913
1.27,131.923,19.268
1.3,135.152,19.658
1.33,138.416,20.162
1.37,141.574,20.586
1.4,144.347,20.895
1.43,147.26,21.422
1.46,150.208,21.937
1.5,153.12,22.189
1.53,155.893,22.556
1.56,158.595,22.945
1.59,161.438,23.392
1.63,164.281,23.782
1.66,167.088,24.102
1.69,169.931,24.469
1.72,172.493,24.881
1.76,175.02,25.271
1.79,177.652,25.626
1.82,180.354,26.05
1.86,182.916,26.394
1.89,185.583,26.806
1.92,188.321,27.333
1.95,191.023,27.745
1.99,193.094,27.917
2.02,195.164,28.398
2.05,197.797,28.994
2.08,200.569,29.154
2.12,202.71,29.212
2.15,204.816,29.624
2.18,206.992,30.082
2.21,209.167,30.323
2.25,210.852,30.403
2.28,212.782,30.724
2.31,215.063,31.045
2.34,217.064,31.159
2.38,218.713,31.457
2.41,220.609,31.892
2.44,222.855,32.282
2.47,224.96,32.522
2.51,226.68,32.855
2.54,228.084,33.049
2.57,229.839,33.37
2.6,231.769,33.645
2.64,233.383,33.759
2.67,234.752,34.0
2.7,236.261,34.286
2.73,237.91,34.493
2.77,239.63,34.733
2.8,241.35,35.054
2.83,242.859,35.432
2.86,244.438,35.787
2.9,246.053,36.085
2.93,247.702,36.406
2.96,249.246,36.83
2.99,250.861,37.185
3.03,252.58,37.494
3.06,254.124,37.918
3.09,255.809,38.388
3.12,257.599,38.766
3.16,259.389,39.224
3.19,261.108,39.693
3.22,262.582,40.014
3.25,263.811,40.198
3.29,265.004,40.484
3.32,266.548,40.77
3.35,267.952,41.022
3.38,269.25,41.24
3.42,270.409,41.446
3.45,271.532,41.698
3.48,272.83,41.939
3.51,274.094,42.019
3.55,275.076,42.214
3.58,276.024,42.546
3.61,277.322,42.729
3.65,278.375,42.89
3.68,279.428,43.199
3.71,280.446,43.394
3.74,281.218,43.474
3.78,281.955,43.531
3.81,282.587,43.646
3.84,283.078,43.623
3.87,283.604,43.646
3.91,284.271,43.817
3.94,285.078,43.932
3.97,285.5,43.966
4.0,285.851,44.092
4.04,286.026,44.058
4.07,286.026,43.943
4.1,285.991,43.84
4.13,285.991,43.623
4.17,285.886,43.52
4.2,286.166,43.657
4.23,286.096,43.554
4.26,285.64,43.382
4.3,285.57,43.394
4.33,285.921,43.508
4.36,285.429,43.325
4.39,284.692,43.119
4.43,284.447,43.291
4.46,284.938,43.291
4.49,284.938,43.245
4.52,284.201,43.256
4.56,283.64,43.233
4.59,283.324,43.107
4.62,282.657,42.947
4.65,281.639,42.798
4.69,280.867,42.706
4.72,280.305,42.5
4.75,279.393,42.202
4.78,278.13,41.996
4.82,276.866,41.744
4.85,275.919,41.549
4.88,274.655,41.274
4.91,273.322,40.942
4.95,272.093,40.747
4.98,271.111,40.576
5.01,269.847,40.289
5.04,268.127,40.049
5.08,266.548,39.842
5.11,265.32,39.625
5.14,263.776,39.327
5.17,262.021,38.937
5.21,260.371,38.743
5.24,258.932,38.514
5.27,257.564,38.273
5.3,255.879,38.01
5.34,253.738,37.757
5.37,251.843,37.563
5.4,250.65,37.574
5.44,249.246,37.334
5.47,247.421,36.956
5.5,245.526,36.738
5.53,243.842,36.658
5.57,242.297,36.555
5.6,240.578,36.383
5.63,238.647,36.177
5.66,236.928,36.028
5.7,235.278,35.89
5.73,233.418,35.661
5.76,231.488,35.478
5.79,229.733,35.363
5.83,227.803,35.1
5.86,225.803,34.722
5.89,223.697,34.401
5.92,221.591,34.16
5.96,219.45,33.897
5.99,217.45,33.656
6.02,215.485,33.439
6.05,213.519,33.164
6.09,211.273,32.82
6.12,208.817,32.534
6.15,206.535,32.247
6.18,204.289,31.858
6.22,201.973,31.468
6.25,199.622,31.136
6.28,197.305,30.793
6.31,195.024,30.529
6.35,192.778,30.185
6.38,190.392,29.865
6.41,188.11,29.635
6.44,185.654,29.315
6.48,183.092,28.902
6.51,180.6,28.65
6.54,178.178,28.307
6.57,175.511,27.837
6.61,172.668,27.413
6.64,169.861,26.955
6.67,166.983,26.474
6.7,164.175,25.89
6.74,161.192,25.317
6.77,158.034,24.813
6.8,154.875,24.171
6.83,152.138,23.862
6.87,149.541,23.461
6.9,146.698,22.98
6.93,143.364,22.533
6.96,140.381,22.144
7.0,137.398,21.72
7.03,134.59,21.25
7.06,131.677,20.849
7.09,128.484,20.276
7.13,125.009,19.772
7.16,121.675,19.303
7.19,118.622,18.81
7.23,115.533,18.237
7.26,112.34,17.619
7.29,109.006,17.172
7.32,105.812,16.782
7.36,102.689,16.324
7.39,99.635,15.866
7.42,96.477,15.396
7.45,93.073,14.904
7.49,89.633,14.423
7.52,86.299,13.987
7.55,83.07,13.518
7.58,79.947,13.002
7.62,76.683,12.487
7.65,73.174,11.937
7.68,69.664,11.467
7.71,66.576,11.043
7.75,63.417,10.516
7.78,59.978,9.921
7.81,56.363,9.52
7.84,53.169,9.119
7.88,49.835,8.637
7.91,46.677,8.042
7.94,42.711,7.572
7.97,40.781,6.828
8.01,42.886,4.811
8.04,47.729,0.458
8.07,38.078,-2.234
8.1,27.339,-0.344
8.14,28.708,-0.057
8.17,24.005,-1.077
8.2,16.284,-0.974
8.23,9.441,-0.871
8.27,3.474,-0.813
8.3,-2.071,-0.71
8.33,-4.387,-0.195
8.36,-4.843,-0.344
8.4,-7.686,-0.504
8.43,-8.949,-0.894
8.46,-11.932,-1.741
8.49,-17.618,-1.947
8.53,-23.058,-2.085
8.56,-28.322,-2.406
8.59,-33.095,-2.749
8.62,-37.096,-3.116
8.66,-39.412,-3.746
8.69,-40.746,-4.594
8.72,-42.36,-5.396
8.75,-44.992,-5.854
8.79,-48.116,-5.865
8.82,-50.888,-5.648
8.85,-53.836,-5.716
8.88,-57.17,-6.152
8.92,-61.031,-6.736
8.95,-65.242,-7.423
8.98,-69.243,-8.076
9.02,-72.647,-8.821
9.05,-75.876,-9.726
9.08,-79.245,-10.573
9.11,-82.404,-11.112
9.15,-85.773,-11.65
9.18,-89.037,-12.189
9.21,-92.3,-12.532
9.24,-95.424,-12.887
9.28,-98.582,-13.414
9.31,-102.022,-13.861
9.34,-105.496,-14.388
9.37,-108.9,-14.938
9.41,-112.059,-15.465
9.44,-115.288,-16.061
9.47,-118.692,-16.633
9.5,-121.64,-17.057
9.54,-124.623,-17.63
9.57,-127.817,-18.329
9.6,-131.221,-18.787
9.63,-134.555,-19.28
9.67,-137.854,-19.841
9.7,-141.118,-20.391
9.73,-144.066,-20.918
9.76,-146.873,-21.273
9.8,-149.786,-21.731
9.83,-152.734,-22.098
9.86,-155.647,-22.453
9.89,-158.35,-22.762
9.93,-161.087,-23.163
9.96,-164.07,-23.759
9.99,-167.194,-24.183
10.02,-170.036,-24.526
10.06,-172.668,-25.03
10.09,-175.23,-25.454
10.12,-177.968,-25.741
10.15,-180.6,-26.164
10.19,-183.653,-26.737
10.22,-186.25,-26.943
10.25,-188.286,-27.161
10.28,-190.427,-27.654
10.32,-193.164,-28.192
10.35,-195.972,-28.387
10.38,-198.183,-28.478
10.41,-200.183,-28.879
10.45,-202.71,-29.452
10.48,-205.061,-29.727
10.51,-206.992,-29.899
10.54,-208.817,-30.243
10.58,-211.063,-30.644
10.61,-213.203,-30.884
10.64,-215.379,-31.113
10.67,-217.485,-31.491
10.71,-219.38,-31.904
10.74,-221.416,-32.282
10.77,-223.416,-32.602
10.81,-224.995,-32.809
10.84,-226.68,-32.992
10.87,-228.68,-33.37
10.9,-230.435,-33.576
10.94,-231.944,-33.817
10.97,-233.453,-34.149
11.0,-235.384,-34.481
11.03,-237.419,-34.664
11.07,-238.893,-34.848
11.1,-240.157,-35.191
11.13,-241.946,-35.65
11.16,-243.947,-36.074
11.2,-245.982,-36.474
11.23,-247.667,-36.933
11.26,-249.352,-37.471
11.29,-251.106,-37.803
11.33,-252.475,-37.987
11.36,-253.563,-38.239
11.39,-254.756,-38.445
11.42,-256.195,-38.525
11.46,-257.564,-38.582
11.49,-258.687,-38.731
11.52,-259.95,-38.995
11.55,-261.249,-39.315
11.59,-262.582,-39.579
11.62,-263.741,-39.819
11.65,-265.25,-40.117
11.68,-266.794,-40.415
11.72,-268.163,-40.873
11.75,-269.496,-41.297
11.78,-270.76,-41.641
11.81,-271.848,-41.95
11.85,-272.971,-42.237
11.88,-274.234,-42.408
11.91,-275.217,-42.603
11.94,-276.199,-42.878
11.98,-277.533,-43.107
12.01,-278.621,-43.336
12.04,-279.463,-43.669
12.07,-280.376,-43.863
12.11,-281.148,-43.955
12.14,-281.92,-44.081
12.17,-282.552,-44.069
12.2,-282.973,-44.069
12.24,-283.534,-44.173
12.27,-283.85,-44.058
12.3,-284.447,-44.23
12.33,-285.254,-44.333
12.37,-285.71,-44.425
12.4,-285.921,-44.585
12.43,-285.956,-44.402
12.46,-286.342,-44.585
12.5,-286.658,-44.39
12.53,-286.482,-44.276
12.56,-286.588,-44.47
12.6,-286.658,-44.276
12.63,-285.991,-44.104
12.66,-285.745,-44.001
12.69,-285.535,-43.84
12.73,-285.219,-43.543
12.76,-284.552,-43.439
12.79,-283.955,-43.291
12.82,-283.71,-43.268
12.86,-283.429,-43.256
12.89,-282.762,-43.084
12.92,-281.429,-42.89
12.95,-280.692,-42.844
12.99,-280.376,-42.66
13.02,-279.639,-42.317
13.05,-278.445,-42.145
13.08,-277.428,-42.076
13.12,-276.48,-41.904
13.15,-275.392,-41.675
13.18,-274.374,-41.435
13.21,-273.181,-41.217
13.25,-271.777,-41.103
13.28,-270.97,-40.999
13.31,-270.058,-40.828
13.34,-268.864,-40.736
13.38,-267.741,-40.702
13.41,-266.583,-40.53
13.44,-265.25,-40.358
13.47,-263.951,-40.175
13.51,-262.407,-39.9
13.54,-260.793,-39.613
13.57,-259.354,-39.293
13.6,-257.88,-39.086
13.64,-256.3,-38.914
13.67,-254.581,-38.617
13.7,-252.826,-38.33
13.73,-251.106,-38.01
13.77,-249.352,-37.78
13.8,-247.491,-37.483
13.83,-245.456,-37.082
13.86,-243.491,-36.944
13.9,-241.911,-36.658
13.93,-239.735,-36.177
13.96,-237.419,-35.925
