Trigger_Date,2023/06/28
Trigger_Time,T 10:07:11.227 PDT
Samples_Per_Cycle,512
Microseconds_Per_Sample,32.544
Time (ms),Voltage (V),Current (A)
-16.66,1.895,2.807
-16.63,5.685,4.135
-16.6,8.774,4.903
-16.56,12.529,5.315
-16.53,16.951,5.292
-16.5,21.935,5.327
-16.47,27.094,5.556
-16.43,32.077,5.396
-16.4,36.429,5.098
-16.37,39.938,5.029
-16.34,42.711,5.224
-16.3,45.062,5.716
-16.27,47.273,6.415
-16.24,49.239,7.137
-16.21,51.309,7.813
-16.17,53.625,8.466
-16.14,56.117,9.107
-16.11,58.855,9.794
-16.08,62.013,10.505
-16.04,65.523,11.341
-16.01,69.418,12.074
-15.98,73.524,12.578
-15.95,77.525,12.979
-15.91,81.561,13.414
-15.88,85.457,13.884
-15.85,89.212,14.377
-15.82,93.037,14.823
-15.78,96.652,15.213
-15.75,99.916,15.637
-15.72,102.969,15.98
-15.69,105.988,16.347
-15.65,108.795,16.828
-15.62,111.673,17.367
-15.59,114.445,17.859
-15.56,117.358,18.386
-15.52,120.447,19.108
-15.49,123.535,19.566
-15.46,126.624,19.967
-15.43,129.922,20.586
-15.39,133.362,20.964
-15.36,136.485,21.353
-15.33,139.749,21.834
-15.3,142.802,22.178
-15.26,145.61,22.419
-15.23,148.312,22.774
-15.2,150.734,22.865
-15.17,152.875,23.014
-15.13,154.875,23.381
-15.1,156.841,23.736
-15.07,158.911,24.217
-15.04,161.298,24.893
-15.0,163.824,25.431
-14.97,166.667,26.004
-14.94,169.756,26.6
-14.9,172.949,27.092
-14.87,176.248,27.677
-14.84,179.828,28.295
-14.81,183.478,28.639
-14.77,187.128,29.028
-14.74,190.532,29.292
-14.71,193.655,29.292
-14.68,196.112,29.441
-14.64,198.428,29.693
-14.61,200.359,29.807
-14.58,202.078,30.025
-14.55,203.622,30.288
-14.51,205.026,30.426
-14.48,206.149,30.621
-14.45,207.237,30.815
-14.42,208.22,30.999
-14.38,209.413,31.48
-14.35,210.922,31.938
-14.32,212.396,32.236
-14.29,214.362,32.786
-14.25,216.678,33.233
-14.22,218.889,33.347
-14.19,221.135,33.588
-14.16,223.311,33.828
-14.12,225.522,33.966
-14.09,227.592,34.298
-14.06,229.733,34.584
-14.03,231.734,34.768
-13.99,233.664,35.1
-13.96,235.419,35.214
-13.93,237.068,35.329
-13.9,238.612,35.558
-13.86,239.946,35.707
-13.83,241.315,35.844
-13.8,242.719,36.2
-13.77,244.228,36.52
-13.73,245.737,36.852
-13.7,247.386,37.196
-13.67,249.071,37.379
-13.64,250.755,37.62
-13.6,252.545,37.895
-13.57,254.265,38.021
-13.54,255.809,38.239
-13.51,257.704,38.525
-13.47,259.389,38.662
-13.44,260.863,38.708
-13.41,262.126,38.846
-13.38,263.319,38.949
-13.34,264.478,39.086
-13.31,265.39,39.224
-13.28,266.267,39.315
-13.25,267.25,39.556
-13.21,268.303,39.911
-13.18,269.461,40.129
-13.15,270.724,40.392
-13.12,272.058,40.553
-13.08,273.392,40.667
-13.05,274.76,40.828
-13.02,276.129,41.103
-12.98,277.533,41.24
-12.95,278.761,41.274
-12.92,279.814,41.251
-12.89,280.656,41.217
-12.85,281.183,41.194
-12.82,281.639,41.171
-12.79,281.955,41.263
-12.76,282.306,41.481
-12.72,282.622,41.561
-12.69,282.938,41.584
-12.66,283.148,41.584
-12.63,283.324,41.515
-12.59,283.569,41.664
-12.56,283.745,41.629
-12.53,284.271,42.053
-12.5,284.868,42.156
-12.46,285.219,41.95
-12.43,285.675,42.042
-12.4,286.061,42.053
-12.37,286.166,41.778
-12.33,285.991,41.503
-12.3,285.535,41.355
-12.27,285.008,41.32
-12.24,284.377,41.251
-12.2,283.604,41.125
-12.17,282.727,40.988
-12.14,281.674,40.862
-12.11,280.621,40.61
-12.07,279.288,40.381
-12.04,278.059,40.278
-12.01,276.796,40.209
-11.98,275.778,40.163
-11.94,274.796,40.117
-11.91,273.708,39.911
-11.88,272.585,39.59
-11.85,271.286,39.361
-11.81,269.882,38.983
-11.78,268.373,38.651
-11.75,266.864,38.559
-11.72,265.32,38.388
-11.68,263.881,38.239
-11.65,262.477,38.216
-11.62,261.073,37.964
-11.59,259.74,37.631
-11.55,258.301,37.471
-11.52,256.792,37.219
-11.49,255.458,36.979
-11.46,253.949,36.83
-11.42,252.51,36.589
-11.39,251.212,36.383
-11.36,249.597,36.062
-11.33,247.667,35.661
-11.29,245.912,35.363
-11.26,244.052,35.134
-11.23,241.946,34.71
-11.2,239.876,34.458
-11.16,238.051,34.447
-11.13,236.05,34.195
-11.1,234.261,33.931
-11.06,232.576,33.714
-11.03,230.681,33.416
-11.0,229.031,33.164
-10.97,227.312,32.855
-10.93,225.381,32.602
-10.9,223.767,32.476
-10.87,222.328,32.27
-10.84,220.433,31.766
-10.8,218.538,31.365
-10.77,216.853,31.285
-10.74,214.993,31.033
-10.71,213.379,30.907
-10.67,211.87,30.735
-10.64,210.22,30.575
-10.61,208.817,30.392
-10.58,207.202,29.888
-10.54,205.061,29.338
-10.51,203.026,28.948
-10.48,200.71,28.364
-10.45,198.007,27.94
-10.41,195.48,27.78
-10.38,193.129,27.493
-10.35,190.532,27.23
-10.32,188.216,27.001
-10.28,185.97,26.52
-10.25,183.337,26.096
-10.22,180.775,25.764
-10.19,178.389,25.374
-10.15,175.757,25.065
-10.12,173.37,24.79
-10.09,171.019,24.228
-10.06,168.317,23.77
-10.02,165.544,23.404
-9.99,162.842,22.785
-9.96,159.824,22.304
-9.93,156.841,22.075
-9.89,154.173,21.662
-9.86,151.225,21.261
-9.83,148.172,20.803
-9.8,145.364,20.345
-9.76,142.381,19.887
-9.73,139.258,19.474
-9.7,136.345,19.005
-9.67,133.572,18.65
-9.63,130.73,18.432
-9.6,128.203,17.928
-9.57,125.571,17.504
-9.54,122.693,17.241
-9.5,120.166,16.771
-9.47,117.323,16.175
-9.44,114.024,15.683
-9.41,111.217,15.224
-9.37,108.269,14.629
-9.34,104.829,14.022
-9.31,101.53,13.472
-9.27,97.986,12.842
-9.24,94.055,12.269
-9.21,90.3,11.719
-9.18,86.475,11.055
-9.14,82.263,10.551
-9.11,78.578,10.047
-9.08,74.928,9.497
-9.05,70.822,9.096
-9.01,67.383,8.775
-8.98,64.259,8.305
-8.95,60.75,7.881
-8.92,57.556,7.446
-8.88,54.678,6.919
-8.85,51.45,6.449
-8.82,48.326,5.991
-8.79,45.273,5.361
-8.75,41.869,4.846
-8.72,38.57,4.422
-8.69,35.376,3.895
-8.66,31.726,3.345
-8.62,28.111,2.852
-8.59,24.532,2.245
-8.56,20.601,1.661
-8.53,16.495,1.18
-8.49,12.354,0.802
-8.46,8.142,0.47
-8.43,3.58,0.206
-8.4,0.07,-0.034
-8.36,-0.421,-1.123
-8.33,-2.281,-2.749
-8.3,-5.615,-3.677
-8.27,-7.861,-4.284
-8.23,-10.739,-4.823
-8.2,-14.88,-5.189
-8.17,-19.864,-5.453
-8.14,-25.549,-5.682
-8.1,-30.989,-5.625
-8.07,-35.867,-5.212
-8.04,-39.728,-4.823
-8.01,-42.36,-4.949
-7.97,-44.781,-5.51
-7.94,-47.273,-6.175
-7.91,-49.203,-6.873
-7.88,-50.993,-7.664
-7.84,-53.415,-8.305
-7.81,-55.696,-8.981
-7.78,-58.398,-9.794
-7.75,-61.732,-10.528
-7.71,-65.347,-11.272
-7.68,-69.173,-12.04
-7.65,-73.384,-12.544
-7.62,-77.49,-13.025
-7.58,-81.491,-13.552
-7.55,-85.913,-13.907
-7.52,-89.563,-14.285
-7.49,-92.967,-14.823
-7.45,-96.898,-15.259
-7.42,-100.267,-15.534
-7.39,-102.759,-15.923
-7.35,-105.812,-16.37
-7.32,-108.69,-16.782
-7.29,-111.076,-17.332
-7.26,-114.024,-17.939
-7.22,-117.183,-18.569
-7.19,-120.096,-19.154
-7.16,-123.325,-19.612
-7.13,-126.799,-20.196
-7.09,-129.922,-20.723
-7.06,-133.432,-21.101
-7.03,-137.222,-21.708
-7.0,-140.205,-21.96
-6.96,-143.575,-22.338
-6.93,-146.838,-22.602
-6.9,-149.225,-22.797
-6.87,-151.962,-23.243
-6.83,-154.805,-23.656
-6.8,-156.981,-24.034
-6.77,-159.438,-24.549
-6.74,-162.596,-25.099
-6.7,-165.088,-25.454
-6.67,-167.615,-25.809
-6.64,-170.422,-26.176
-6.61,-172.774,-26.428
-6.57,-175.195,-26.691
-6.54,-177.898,-27.092
-6.51,-180.144,-27.505
-6.48,-182.6,-28.02
-6.44,-185.408,-28.478
-6.41,-187.97,-28.845
-6.38,-190.497,-29.189
-6.35,-193.199,-29.372
-6.31,-195.305,-29.429
-6.28,-197.34,-29.853
-6.25,-199.762,-30.162
-6.22,-201.692,-30.323
-6.18,-203.342,-30.644
-6.15,-205.307,-30.884
-6.12,-206.816,-30.953
-6.09,-208.255,-31.251
-6.05,-210.045,-31.537
-6.02,-211.694,-31.801
-5.99,-213.344,-32.293
-5.96,-215.379,-32.74
-5.92,-217.52,-33.072
-5.89,-219.591,-33.45
-5.86,-221.767,-33.645
-5.83,-223.943,-33.771
-5.79,-225.873,-34.115
-5.76,-228.014,-34.309
-5.73,-229.979,-34.344
-5.7,-231.769,-34.951
-5.66,-233.664,-35.134
-5.63,-235.313,-35.043
-5.6,-236.612,-35.329
-5.56,-238.226,-35.684
-5.53,-239.946,-35.925
-5.5,-241.385,-36.2
-5.47,-243.105,-36.566
-5.43,-244.965,-36.852
-5.4,-246.719,-37.105
-5.37,-248.509,-37.334
-5.34,-250.334,-37.437
-5.3,-251.878,-37.574
-5.27,-253.352,-37.803
-5.24,-255.002,-38.01
-5.21,-256.371,-38.227
-5.17,-257.774,-38.536
-5.14,-259.354,-38.708
-5.11,-260.652,-38.731
-5.08,-261.81,-38.811
-5.04,-263.074,-38.914
-5.01,-263.916,-39.029
-4.98,-264.934,-39.304
-4.95,-266.092,-39.499
-4.91,-267.145,-39.659
-4.88,-268.233,-39.945
-4.85,-269.601,-40.209
-4.82,-270.9,-40.392
-4.78,-272.163,-40.621
-4.75,-273.602,-40.736
-4.72,-274.901,-40.85
-4.69,-276.234,-41.16
-4.65,-277.638,-41.286
-4.62,-278.867,-41.309
-4.59,-279.814,-41.32
-4.56,-280.832,-41.286
-4.52,-281.464,-41.171
-4.49,-281.744,-41.137
-4.46,-282.06,-41.229
-4.43,-282.376,-41.412
-4.39,-282.552,-41.561
-4.36,-282.832,-41.664
-4.33,-283.183,-41.664
-4.3,-283.394,-41.733
-4.26,-283.604,-41.675
-4.23,-283.885,-41.698
-4.2,-284.026,-41.733
-4.17,-284.271,-41.698
-4.13,-284.692,-41.95
-4.1,-284.868,-41.881
-4.07,-284.868,-41.664
-4.04,-284.833,-41.618
-4.0,-284.622,-41.492
-3.97,-284.166,-41.206
-3.94,-283.604,-41.194
-3.91,-283.043,-41.217
-3.87,-282.411,-41.068
-3.84,-281.674,-40.988
-3.81,-280.832,-40.828
-3.78,-279.849,-40.541
-3.74,-278.656,-40.324
-3.71,-277.393,-40.083
-3.68,-276.094,-39.957
-3.64,-274.936,-40.049
-3.61,-273.918,-40.014
-3.58,-272.9,-39.842
-3.55,-271.883,-39.682
-3.51,-270.654,-39.327
-3.48,-269.286,-38.857
-3.45,-267.812,-38.628
-3.42,-266.302,-38.514
-3.38,-264.899,-38.388
-3.35,-263.53,-38.399
-3.32,-262.407,-38.262
-3.29,-261.179,-37.964
-3.25,-259.705,-37.666
-3.22,-258.231,-37.391
-3.19,-256.897,-37.127
-3.16,-255.283,-36.967
-3.12,-253.809,-36.772
-3.09,-252.299,-36.612
-3.06,-250.755,-36.429
-3.03,-249.176,-36.028
-2.99,-247.386,-35.627
-2.96,-245.491,-35.306
-2.93,-243.526,-34.997
-2.9,-241.595,-34.848
-2.86,-239.771,-34.687
-2.83,-237.981,-34.516
-2.8,-236.436,-34.447
-2.77,-234.822,-34.218
-2.73,-233.243,-33.874
-2.7,-231.839,-33.633
-2.67,-230.365,-33.347
-2.64,-228.54,-32.981
-2.6,-226.891,-32.694
-2.57,-225.031,-32.431
-2.54,-223.065,-32.041
-2.51,-221.03,-31.72
-2.47,-218.784,-31.331
-2.44,-216.292,-30.861
-2.41,-214.291,-30.793
-2.38,-212.361,-30.689
-2.34,-210.291,-30.54
-2.31,-208.746,-30.414
-2.28,-207.237,-30.185
-2.25,-205.447,-29.807
-2.21,-203.658,-29.361
-2.18,-201.727,-28.857
-2.15,-199.551,-28.456
-2.12,-197.305,-28.089
-2.08,-195.059,-27.757
-2.05,-192.708,-27.528
-2.02,-190.532,-27.276
-1.99,-188.251,-26.852
-1.95,-185.759,-26.497
-1.92,-183.337,-26.107
-1.89,-180.775,-25.66
-1.85,-178.214,-25.363
-1.82,-175.757,-25.099
-1.79,-173.37,-24.698
-1.76,-170.844,-24.286
-1.72,-168.211,-23.816
-1.69,-165.579,-23.323
-1.66,-162.772,-22.831
-1.63,-159.648,-22.304
-1.59,-156.735,-21.926
-1.56,-153.822,-21.685
-1.53,-150.874,-21.273
-1.5,-148.137,-20.895
-1.46,-145.259,-20.494
-1.43,-142.346,-20.116
-1.4,-139.574,-19.681
-1.37,-136.801,-19.303
-1.33,-134.064,-18.97
-1.3,-131.572,-18.558
-1.27,-128.94,-18.123
-1.24,-126.308,-17.653
-1.2,-123.676,-17.183
-1.17,-120.868,-16.656
-1.14,-117.92,-16.072
-1.11,-114.972,-15.499
-1.07,-111.673,-14.881
-1.04,-108.163,-14.388
-1.01,-104.689,-13.941
-0.98,-101.109,-13.46
-0.94,-97.389,-12.968
-0.91,-93.704,-12.372
-0.88,-89.949,-11.685
-0.85,-85.878,-11.009
-0.81,-81.807,-10.436
-0.78,-77.841,-9.737
-0.75,-73.56,-9.119
-0.72,-69.559,-8.741
-0.68,-65.804,-8.282
-0.65,-61.908,-7.824
-0.62,-58.293,-7.469
-0.59,-55.029,-7.137
-0.55,-51.836,-6.77
-0.52,-48.817,-6.301
-0.49,-45.975,-5.842
-0.46,-43.132,-5.453
-0.42,-40.219,-4.983
-0.39,-37.517,-4.525
-0.36,-34.885,-4.101
-0.33,-32.007,-3.608
-0.29,-28.954,-3.047
-0.26,-25.584,-2.429
-0.23,-22.075,-1.821
-0.2,-18.179,-1.272
-0.16,-14.108,-0.768
-0.13,-9.721,-0.401
-0.1,-5.264,-0.069
-0.07,-0.772,0.103
-0.03,0.526,0.951
0.0,1.965,2.795
0.03,5.721,4.078
0.07,8.633,4.823
0.1,12.248,5.281
0.13,16.635,5.315
0.16,21.443,5.212
0.2,26.532,5.338
0.23,31.48,5.281
0.26,35.692,4.972
0.29,39.096,4.846
0.33,41.833,5.098
0.36,44.325,5.659
0.39,46.712,6.312
0.42,48.888,6.988
0.46,50.993,7.687
0.49,53.345,8.374
0.52,55.836,9.119
0.55,58.714,9.852
0.59,61.943,10.585
0.62,65.593,11.375
0.65,69.453,11.948
0.68,73.419,12.452
0.72,77.42,12.945
0.75,81.386,13.392
0.78,85.316,13.861
0.81,89.072,14.354
0.85,92.827,14.915
0.88,96.547,15.328
0.91,99.916,15.683
0.94,103.04,16.106
0.98,106.093,16.507
1.01,108.936,17.011
1.04,111.813,17.516
1.07,114.867,18.054
1.11,117.85,18.535
1.14,120.833,19.051
1.17,123.851,19.532
1.2,126.939,20.07
1.24,130.168,20.563
1.27,133.502,21.055
1.3,136.801,21.514
1.33,139.96,21.949
1.37,142.978,22.224
1.4,145.996,22.51
1.43,148.663,22.831
1.46,151.12,22.991
1.5,153.436,23.22
1.53,155.542,23.667
1.56,157.928,24.274
1.59,160.385,24.687
1.63,162.877,25.259
1.66,165.685,25.832
1.69,168.633,26.245
1.72,171.51,26.657
1.76,174.599,27.115
1.79,177.757,27.551
1.82,180.846,28.055
1.85,183.934,28.501
1.89,187.163,28.857
1.92,190.076,29.074
1.95,192.603,29.177
1.99,194.849,29.269
2.02,196.744,29.464
2.05,198.393,29.658
2.08,200.113,29.888
2.12,201.692,30.185
2.15,203.061,30.518
2.18,204.57,30.804
2.21,206.079,31.125
2.25,207.658,31.434
2.28,209.518,31.801
2.31,211.484,32.179
2.34,213.379,32.454
2.38,215.555,32.809
2.41,217.766,33.175
2.44,219.801,33.336
2.47,221.872,33.496
2.51,223.872,33.702
2.54,225.662,33.908
2.57,227.557,34.206
2.6,229.417,34.493
2.64,231.067,34.848
2.67,233.032,35.249
2.7,234.962,35.409
2.73,236.752,35.581
2.77,238.402,35.776
2.8,239.981,35.913
2.83,241.49,36.131
2.86,243.069,36.463
2.9,244.789,36.738
2.93,246.368,37.105
2.96,248.158,37.368
2.99,249.843,37.46
3.03,251.352,37.666
3.06,253.107,37.929
3.09,254.756,38.067
3.12,256.23,38.353
3.16,257.88,38.708
3.19,259.494,38.903
3.22,260.933,38.983
3.25,262.337,39.029
3.29,263.46,39.052
3.32,264.548,39.155
3.35,265.495,39.293
3.38,266.513,39.338
3.42,267.39,39.613
3.45,268.513,40.026
3.48,269.672,40.232
3.51,270.83,40.484
3.55,272.093,40.644
3.58,273.392,40.667
3.61,274.62,40.839
3.64,275.919,41.091
3.68,277.182,41.24
3.71,278.34,41.32
3.74,279.358,41.309
3.78,280.235,41.286
3.81,280.797,41.206
3.84,281.148,41.171
3.87,281.534,41.32
3.91,281.99,41.549
3.94,282.376,41.607
3.97,282.762,41.629
4.0,283.043,41.675
4.04,283.394,41.847
4.07,283.85,42.007
4.1,284.306,41.95
4.13,284.482,41.801
4.17,285.043,42.111
4.2,285.5,42.191
4.23,285.605,41.927
4.26,285.71,41.87
4.3,285.64,41.733
4.33,285.114,41.595
4.36,284.306,41.332
4.39,283.569,41.309
4.43,283.008,41.355
4.46,282.446,41.251
4.49,281.639,41.045
4.52,280.797,40.942
4.56,279.919,40.816
4.59,278.902,40.576
4.62,277.884,40.358
4.65,276.866,40.335
4.69,275.848,40.232
4.72,274.866,40.106
4.75,273.918,39.991
4.78,272.69,39.693
4.82,271.391,39.361
4.85,269.987,38.983
4.88,268.233,38.64
4.91,266.583,38.491
4.95,265.004,38.388
4.98,263.354,38.239
5.01,261.81,38.216
5.04,260.547,38.067
5.08,259.143,37.769
5.11,257.809,37.597
5.14,256.581,37.368
5.17,255.247,37.082
5.21,253.879,36.933
5.24,252.615,36.704
5.27,251.212,36.497
5.3,249.738,36.245
5.34,248.158,35.867
5.37,246.368,35.547
5.4,244.579,35.295
5.43,242.648,34.894
5.47,240.648,34.653
5.5,238.823,34.642
5.53,236.928,34.298
5.56,234.752,33.897
5.6,232.857,33.748
5.63,231.172,33.496
5.66,229.277,33.187
5.7,227.382,32.992
5.73,225.732,32.717
5.76,224.048,32.499
5.79,222.398,32.328
5.83,220.749,31.846
5.86,218.713,31.4
5.89,216.818,31.377
5.92,215.134,31.125
5.96,213.309,30.861
5.99,211.449,30.724
6.02,209.94,30.483
6.05,208.29,30.185
6.09,206.29,29.739
6.12,204.184,29.235
6.15,202.078,28.879
6.18,199.657,28.433
6.22,197.305,28.078
6.25,194.849,27.86
6.28,192.427,27.654
6.31,190.286,27.367
6.35,188.145,27.069
6.38,185.794,26.68
6.41,183.583,26.279
6.44,181.232,25.844
6.48,178.705,25.466
6.51,176.389,25.156
6.54,174.037,24.801
6.57,171.405,24.274
6.61,168.773,23.793
6.64,166.035,23.301
6.67,162.912,22.716
6.7,159.753,22.201
6.74,156.595,21.892
6.77,153.436,21.514
6.8,150.453,21.216
6.83,147.505,20.78
6.87,144.522,20.425
6.9,141.785,20.116
6.93,139.258,19.772
6.96,136.555,19.337
7.0,134.099,19.005
7.03,131.818,18.684
7.06,129.361,18.123
7.09,126.729,17.642
7.13,124.062,17.16
7.16,121.254,16.542
7.19,118.06,15.877
7.22,114.691,15.247
7.26,110.971,14.812
7.29,107.321,14.411
7.32,103.777,13.918
7.35,100.127,13.449
7.39,96.547,12.933
7.42,92.862,12.361
7.45,89.212,11.776
7.49,85.492,11.238
7.52,81.772,10.745
7.55,78.122,10.253
7.58,74.577,9.817
7.62,71.243,9.279
7.65,67.804,8.786
7.68,64.33,8.385
7.71,61.206,7.939
7.75,58.047,7.366
7.78,54.713,6.885
7.81,51.555,6.438
7.84,48.326,5.911
7.88,45.062,5.327
7.91,41.693,4.823
7.94,38.359,4.365
7.97,34.85,3.872
8.01,31.48,3.379
8.04,27.971,2.841
8.07,24.321,2.245
8.1,20.425,1.638
8.14,16.354,1.1
8.17,12.108,0.768
8.2,8.002,0.504
8.23,3.58,0.229
8.27,0.07,0.0
8.3,-0.421,-1.054
8.33,-2.071,-2.555
8.36,-5.194,-3.425
8.4,-7.335,-4.009
8.43,-9.932,-4.594
8.46,-13.792,-5.006
8.49,-18.741,-5.453
8.53,-24.496,-5.762
8.56,-30.287,-5.728
8.59,-35.446,-5.327
8.62,-39.552,-4.926
8.66,-42.781,-4.972
8.69,-45.343,-5.453
8.72,-47.765,-6.22
8.75,-50.221,-6.976
8.79,-52.467,-7.629
8.82,-54.503,-8.248
8.85,-56.714,-8.901
8.88,-59.346,-9.623
8.92,-62.329,-10.39
8.95,-65.698,-11.1
8.98,-69.383,-11.811
9.01,-73.138,-12.361
9.05,-77.104,-12.876
9.08,-81.07,-13.414
9.11,-84.86,-13.941
9.14,-88.721,-14.491
9.18,-92.616,-14.961
9.21,-96.266,-15.362
9.24,-99.881,-15.706
9.27,-103.04,-15.958
9.31,-105.917,-16.393
9.34,-109.111,-16.863
9.37,-112.059,-17.321
9.41,-114.832,-17.848
9.44,-117.955,-18.489
9.47,-121.149,-19.016
9.5,-124.062,-19.417
9.54,-127.185,-19.978
9.57,-130.344,-20.494
9.6,-133.467,-20.895
9.63,-137.082,-21.64
9.67,-140.486,-21.96
9.7,-143.399,-22.166
9.73,-146.487,-22.419
9.76,-149.295,-22.602
9.8,-151.787,-23.06
9.83,-154.384,-23.507
9.86,-156.911,-23.862
9.89,-159.438,-24.412
9.93,-162.105,-25.053
9.96,-164.948,-25.363
9.99,-167.545,-25.649
10.02,-170.212,-26.004
10.06,-172.704,-26.164
10.09,-174.915,-26.405
10.12,-177.336,-26.978
10.15,-179.968,-27.447
10.19,-182.495,-27.894
10.22,-185.268,-28.352
10.25,-188.04,-28.673
10.28,-190.497,-29.005
10.32,-192.989,-29.269
10.35,-195.41,-29.372
10.38,-197.481,-29.693
10.41,-199.657,-30.059
10.45,-201.692,-30.197
10.48,-203.482,-30.46
10.51,-205.237,-30.747
10.54,-206.956,-30.85
10.58,-208.501,-31.033
10.61,-210.045,-31.354
10.64,-211.729,-31.697
10.67,-213.484,-32.133
10.71,-215.344,-32.614
10.74,-217.555,-33.003
10.77,-219.696,-33.313
10.8,-221.802,-33.53
10.84,-223.872,-33.702
10.87,-225.908,-34.012
10.9,-227.943,-34.183
10.93,-229.944,-34.309
10.97,-231.909,-34.699
11.0,-233.804,-34.997
11.03,-235.594,-35.1
11.06,-237.244,-35.214
11.1,-238.928,-35.615
11.13,-240.508,-35.764
11.16,-241.946,-35.89
11.2,-243.385,-36.177
11.23,-245.105,-36.543
11.26,-246.754,-36.784
11.29,-248.264,-37.001
11.33,-249.913,-37.242
11.36,-251.527,-37.448
11.39,-253.036,-37.631
11.42,-254.651,-37.838
11.46,-256.3,-38.032
11.49,-257.774,-38.25
11.52,-259.178,-38.445
11.55,-260.547,-38.559
11.59,-261.74,-38.662
11.62,-262.933,-38.788
11.65,-263.986,-38.846
11.68,-265.004,-39.086
11.72,-266.162,-39.327
11.75,-267.145,-39.453
11.78,-268.303,-39.705
11.81,-269.461,-40.026
11.85,-270.76,-40.289
11.88,-272.234,-40.518
11.91,-273.708,-40.587
11.94,-275.076,-40.713
11.98,-276.375,-40.954
12.01,-277.708,-41.137
12.04,-278.937,-41.16
12.07,-280.06,-41.16
12.11,-280.937,-41.137
12.14,-281.639,-41.068
12.17,-281.955,-41.022
12.2,-282.271,-41.114
12.24,-282.692,-41.217
12.27,-282.867,-41.343
12.3,-283.113,-41.355
12.33,-283.324,-41.458
12.37,-283.429,-41.4
12.4,-283.499,-41.32
12.43,-283.745,-41.595
12.46,-284.061,-41.618
12.5,-284.201,-41.595
12.53,-284.447,-41.71
12.56,-284.763,-41.79
12.59,-284.868,-41.595
12.63,-284.903,-41.481
12.66,-284.692,-41.309
12.69,-284.306,-41.022
12.72,-283.85,-40.976
12.76,-283.253,-40.976
12.79,-282.481,-40.828
12.82,-281.709,-40.816
12.85,-280.867,-40.644
12.89,-279.814,-40.289
12.92,-278.481,-40.06
12.95,-277.147,-39.877
12.98,-275.919,-39.728
13.02,-274.76,-39.865
13.05,-273.813,-39.877
13.08,-272.9,-39.613
13.12,-271.777,-39.419
13.15,-270.514,-39.144
13.18,-269.18,-38.674
13.21,-267.706,-38.468
13.25,-266.232,-38.365
13.28,-264.828,-38.227
13.31,-263.6,-38.204
13.34,-262.302,-38.09
13.38,-261.108,-37.792
13.41,-259.775,-37.551
13.44,-258.266,-37.253
13.47,-256.862,-36.967
13.51,-255.353,-36.784
13.54,-253.738,-36.578
13.57,-252.405,-36.417
13.6,-250.931,-36.222
13.64,-249.211,-35.821
13.67,-247.386,-35.398
13.7,-245.561,-35.111
13.73,-243.526,-34.768
13.77,-241.525,-34.573
13.8,-239.63,-34.401
13.83,-237.735,-34.355
13.86,-236.331,-34.424
13.9,-235.068,-34.16
