Trigger_Date,2023/06/28
Trigger_Time,T 13:07:03.981 PDT
Samples_Per_Cycle,512
Microseconds_Per_Sample,32.569
Time (ms),Voltage (V),Current (A)
-16.68,1.334,2.715
-16.64,4.141,3.047
-16.61,5.756,3.608
-16.58,8.247,5.155
-16.54,12.775,6.106
-16.51,18.39,6.003
-16.48,23.865,5.59
-16.45,29.024,5.281
-16.41,33.656,5.166
-16.38,37.552,5.052
-16.35,40.57,4.685
-16.32,42.079,4.204
-16.28,42.395,4.433
-16.25,43.307,5.487
-16.22,45.132,6.954
-16.19,47.765,8.443
-16.15,51.169,9.817
-16.12,55.556,10.86
-16.09,60.258,11.536
-16.06,65.137,11.788
-16.02,69.453,11.753
-15.99,73.103,11.685
-15.96,76.297,11.719
-15.93,79.175,11.914
-15.89,81.491,12.406
-15.86,83.948,13.094
-15.83,86.79,13.884
-15.8,89.563,14.732
-15.76,92.827,15.557
-15.73,96.371,16.175
-15.7,99.881,16.656
-15.67,103.496,17.069
-15.63,107.321,17.367
-15.6,110.62,17.71
-15.57,113.779,18.134
-15.54,117.078,18.455
-15.5,119.92,18.776
-15.47,122.517,19.291
-15.44,125.465,19.898
-15.4,128.378,20.517
-15.37,131.361,21.124
-15.34,134.766,21.777
-15.31,138.24,22.464
-15.27,141.609,22.705
-15.24,145.013,22.98
-15.21,147.926,23.106
-15.18,150.664,23.472
-15.14,153.506,23.896
-15.11,156.104,24.251
-15.08,158.455,24.664
-15.05,160.912,25.007
-15.01,163.263,25.374
-14.98,165.439,25.832
-14.95,167.966,26.268
-14.92,170.633,26.646
-14.88,173.019,27.127
-14.85,175.862,27.722
-14.82,178.775,28.158
-14.79,181.548,28.501
-14.75,184.285,28.776
-14.72,186.917,28.914
-14.69,189.093,29.131
-14.66,191.269,29.418
-14.62,193.48,29.716
-14.59,195.305,30.117
-14.56,197.446,30.575
-14.53,199.657,30.896
-14.49,201.692,31.136
-14.46,203.517,31.308
-14.43,205.377,31.48
-14.4,207.027,31.663
-14.36,208.571,32.018
-14.33,210.571,32.431
-14.3,212.502,32.843
-14.27,214.572,33.21
-14.23,216.678,33.553
-14.2,218.468,33.53
-14.17,220.152,33.611
-14.13,221.977,34.012
-14.1,223.907,34.355
-14.07,225.662,34.745
-14.04,227.698,35.077
-14.0,229.488,35.214
-13.97,231.137,35.398
-13.94,232.962,35.604
-13.91,234.612,35.741
-13.87,236.05,35.948
-13.84,237.63,36.2
-13.81,239.174,36.497
-13.78,240.648,36.795
-13.74,242.368,37.185
-13.71,244.263,37.505
-13.68,245.947,37.666
-13.65,247.597,37.838
-13.61,249.246,38.044
-13.58,250.861,38.25
-13.55,252.51,38.502
-13.52,254.195,38.754
-13.48,255.739,38.972
-13.45,257.248,39.121
-13.42,258.546,39.109
-13.39,259.529,39.052
-13.35,260.442,39.144
-13.32,261.459,39.43
-13.29,262.582,39.831
-13.26,263.776,40.152
-13.22,265.074,40.346
-13.19,266.302,40.495
-13.16,267.496,40.598
-13.13,268.654,40.667
-13.09,269.742,40.759
-13.06,270.865,40.942
-13.03,271.918,41.183
-12.99,273.146,41.458
-12.96,274.269,41.595
-12.93,275.322,41.561
-12.9,276.059,41.458
-12.86,276.691,41.446
-12.83,277.112,41.446
-12.8,277.428,41.469
-12.77,277.779,41.664
-12.73,278.305,41.95
-12.7,278.867,42.007
-12.67,279.393,42.156
-12.64,279.709,42.076
-12.6,280.06,42.007
-12.57,280.341,41.962
-12.54,280.586,41.973
-12.51,280.867,42.122
-12.47,281.288,42.534
-12.44,281.779,42.374
-12.41,281.779,42.122
-12.38,281.744,41.985
-12.34,281.604,41.881
-12.31,281.288,41.893
-12.28,280.937,41.755
-12.25,280.516,41.881
-12.21,280.516,42.065
-12.18,280.305,42.122
-12.15,280.165,42.019
-12.12,279.884,41.721
-12.08,279.112,41.412
-12.05,278.235,41.068
-12.02,277.007,40.702
-11.99,275.638,40.598
-11.95,274.409,40.553
-11.92,273.041,40.427
-11.89,271.567,40.163
-11.85,269.987,39.911
-11.82,268.408,39.693
-11.79,266.689,39.43
-11.76,265.215,39.281
-11.72,263.811,39.304
-11.69,262.617,39.293
-11.66,261.494,39.041
-11.63,260.336,38.674
-11.59,258.862,38.342
-11.56,257.458,37.964
-11.53,255.739,37.551
-11.5,253.914,37.368
-11.46,252.37,37.357
-11.43,250.896,37.288
-11.4,249.422,37.116
-11.37,247.983,36.933
-11.33,246.579,36.612
-11.3,245.105,36.245
-11.27,243.491,35.913
-11.24,241.701,35.73
-11.2,240.086,35.501
-11.17,238.437,35.214
-11.14,236.717,35.077
-11.11,235.138,34.905
-11.07,233.278,34.309
-11.04,231.207,33.748
-11.01,228.996,33.702
-10.98,227.277,33.691
-10.94,225.697,33.542
-10.91,223.943,33.359
-10.88,222.469,33.221
-10.85,221.17,32.843
-10.81,219.38,32.373
-10.78,217.52,31.892
-10.75,215.485,31.411
-10.72,213.133,31.045
-10.68,210.887,30.884
-10.65,208.957,30.689
-10.62,206.781,30.54
-10.58,204.675,30.346
-10.55,202.85,29.945
-10.52,200.745,29.487
-10.49,198.534,29.109
-10.45,196.498,28.788
-10.42,194.392,28.582
-10.39,192.357,28.341
-10.36,190.532,28.02
-10.32,188.461,27.654
-10.29,186.25,27.264
-10.26,184.109,26.772
-10.23,181.583,26.245
-10.19,178.915,25.855
-10.16,176.529,25.546
-10.13,174.142,25.225
-10.1,171.581,24.904
-10.06,168.983,24.446
-10.03,166.211,23.965
-10.0,163.333,23.587
-9.97,160.736,23.106
-9.93,157.823,22.636
-9.9,154.805,22.35
-9.87,152.278,22.018
-9.84,149.611,21.617
-9.8,146.628,21.032
-9.77,143.89,20.654
-9.74,141.013,20.173
-9.71,137.924,19.852
-9.67,135.432,19.658
-9.64,132.976,19.119
-9.61,130.063,18.684
-9.58,127.396,18.168
-9.54,124.693,17.584
-9.51,121.5,17.172
-9.48,118.552,16.794
-9.44,115.744,16.255
-9.41,112.585,15.832
-9.38,109.673,15.488
-9.35,106.795,14.972
-9.31,103.461,14.388
-9.28,100.021,13.792
-9.25,96.652,13.094
-9.22,92.967,12.521
-9.18,89.352,11.994
-9.15,85.878,11.421
-9.12,81.947,10.917
-9.09,78.157,10.482
-9.05,74.788,9.966
-9.02,71.033,9.428
-8.99,67.278,8.981
-8.96,64.084,8.374
-8.92,60.469,7.79
-8.89,56.854,7.4
-8.86,53.941,7.08
-8.83,50.783,6.679
-8.79,47.694,6.197
-8.76,44.817,5.522
-8.73,41.483,5.018
-8.7,38.148,4.594
-8.66,35.446,4.422
-8.63,33.937,5.132
-8.6,33.832,6.449
-8.57,32.779,4.72
-8.53,28.392,1.088
-8.5,22.356,-0.435
-8.47,15.933,-0.596
-8.44,9.441,-1.272
-8.4,1.72,-1.81
-8.37,-0.667,-2.543
-8.34,-2.562,-3.735
-8.3,-5.44,-3.792
-8.27,-7.089,-4.513
-8.24,-10.634,-5.464
-8.21,-14.951,-5.441
-8.17,-19.969,-5.487
-8.14,-25.233,-5.636
-8.11,-30.428,-5.361
-8.08,-34.393,-4.834
-8.04,-37.341,-4.376
-8.01,-39.166,-4.044
-7.98,-40.149,-4.067
-7.95,-40.64,-4.788
-7.91,-42.149,-6.026
-7.88,-44.501,-7.435
-7.85,-47.554,-8.89
-7.82,-51.73,-10.104
-7.78,-56.293,-10.917
-7.75,-60.995,-11.295
-7.72,-65.593,-11.352
-7.69,-69.524,-11.261
-7.65,-72.577,-11.352
-7.62,-75.735,-11.49
-7.59,-78.473,-11.753
-7.56,-80.508,-12.429
-7.52,-83.246,-13.334
-7.49,-86.404,-14.125
-7.46,-89.352,-14.869
-7.43,-92.757,-15.476
-7.39,-96.371,-15.923
-7.36,-99.706,-16.37
-7.33,-103.355,-16.794
-7.3,-106.935,-17.126
-7.26,-109.883,-17.561
-7.23,-113.217,-18.031
-7.2,-116.551,-18.329
-7.17,-119.218,-18.821
-7.13,-122.131,-19.371
-7.1,-125.43,-19.818
-7.07,-128.168,-20.334
-7.03,-131.396,-21.055
-7.0,-135.152,-21.685
-6.97,-138.451,-22.178
-6.94,-141.679,-22.59
-6.9,-144.838,-22.545
-6.87,-147.365,-22.819
-6.84,-149.997,-23.369
-6.81,-153.191,-23.862
-6.77,-155.788,-24.309
-6.74,-158.35,-24.847
-6.71,-161.298,-25.351
-6.68,-164.07,-25.66
-6.64,-166.667,-26.027
-6.61,-169.65,-26.325
-6.58,-172.107,-26.531
-6.55,-174.248,-26.852
-6.51,-176.845,-27.333
-6.48,-179.442,-27.814
-6.45,-181.793,-28.33
-6.42,-184.636,-28.742
-6.38,-187.198,-28.948
-6.35,-189.374,-29.143
-6.32,-191.76,-29.338
-6.29,-193.936,-29.601
-6.25,-195.796,-30.082
-6.22,-198.077,-30.437
-6.19,-200.148,-30.563
-6.16,-201.692,-30.77
-6.12,-203.517,-31.056
-6.09,-205.307,-31.239
-6.06,-206.746,-31.514
-6.03,-208.395,-31.858
-5.99,-210.291,-32.305
-5.96,-212.361,-32.832
-5.93,-214.677,-33.29
-5.89,-216.994,-33.416
-5.86,-218.819,-33.668
-5.83,-220.854,-33.943
-5.8,-222.96,-34.012
-5.76,-224.715,-34.206
-5.73,-226.575,-34.584
-5.7,-228.4,-34.745
-5.67,-229.944,-34.917
-5.63,-231.699,-35.249
-5.6,-233.524,-35.489
-5.57,-234.998,-35.707
-5.54,-236.542,-35.948
-5.5,-238.332,-36.211
-5.47,-239.946,-36.532
-5.44,-241.666,-36.91
-5.41,-243.666,-37.139
-5.37,-245.245,-37.173
-5.34,-246.439,-37.242
-5.31,-247.842,-37.322
-5.28,-248.93,-37.528
-5.24,-250.299,-37.792
-5.21,-251.808,-38.044
-5.18,-253.177,-38.33
-5.15,-254.546,-38.64
-5.11,-256.125,-38.846
-5.08,-257.564,-38.96
-5.05,-258.932,-39.052
-5.02,-260.091,-39.063
-4.98,-261.143,-39.086
-4.95,-262.161,-39.373
-4.92,-263.354,-39.716
-4.89,-264.583,-39.934
-4.85,-265.741,-40.117
-4.82,-267.004,-40.255
-4.79,-268.233,-40.369
-4.76,-269.215,-40.518
-4.72,-270.303,-40.69
-4.69,-271.672,-40.885
-4.66,-272.725,-41.171
-4.62,-273.988,-41.332
-4.59,-275.076,-41.229
-4.56,-275.778,-41.16
-4.53,-276.305,-41.091
-4.49,-276.726,-41.045
-4.46,-276.936,-41.114
-4.43,-277.357,-41.458
-4.4,-277.954,-41.641
-4.36,-278.445,-41.698
-4.33,-279.007,-41.687
-4.3,-279.498,-41.881
-4.27,-280.27,-42.168
-4.23,-280.656,-41.721
-4.2,-280.762,-41.607
-4.17,-281.148,-41.79
-4.14,-281.393,-41.985
-4.1,-281.779,-41.985
-4.07,-281.744,-41.813
-4.04,-281.604,-41.778
-4.01,-281.429,-41.664
-3.97,-280.972,-41.515
-3.94,-280.586,-41.435
-3.91,-280.06,-41.492
-3.88,-279.744,-41.526
-3.84,-279.323,-41.526
-3.81,-278.937,-41.446
-3.78,-278.481,-41.171
-3.75,-277.638,-40.839
-3.71,-276.585,-40.576
-3.68,-275.427,-40.358
-3.65,-274.304,-40.346
-3.62,-273.357,-40.415
-3.58,-272.374,-40.266
-3.55,-271.251,-39.968
-3.52,-269.952,-39.739
-3.48,-268.654,-39.499
-3.45,-267.25,-39.098
-3.42,-265.565,-38.88
-3.39,-264.267,-38.903
-3.35,-263.074,-38.857
-3.32,-261.565,-38.8
-3.29,-260.547,-38.662
-3.26,-259.319,-38.273
-3.22,-257.739,-37.883
-3.19,-256.3,-37.643
-3.16,-254.897,-37.402
-3.13,-253.247,-37.173
-3.09,-251.633,-36.979
-3.06,-250.229,-36.841
-3.03,-248.755,-36.704
-3.0,-247.141,-36.314
-2.96,-245.386,-35.856
-2.93,-243.561,-35.615
-2.9,-241.736,-35.478
-2.87,-240.121,-35.237
-2.83,-238.191,-34.848
-2.8,-236.331,-34.653
-2.77,-234.576,-34.47
-2.74,-232.892,-34.241
-2.7,-231.067,-33.943
-2.67,-229.347,-33.714
-2.64,-227.803,-33.622
-2.61,-226.224,-33.416
-2.57,-224.715,-33.141
-2.54,-223.206,-32.809
-2.51,-221.381,-32.396
-2.48,-219.345,-31.927
-2.44,-217.204,-31.56
-2.41,-215.134,-31.274
-2.38,-213.028,-31.033
-2.34,-210.817,-30.919
-2.31,-208.992,-30.77
-2.28,-207.237,-30.552
-2.25,-205.588,-30.243
-2.21,-203.622,-29.727
-2.18,-201.447,-29.235
-2.15,-199.2,-28.776
-2.12,-196.919,-28.478
-2.08,-194.638,-28.272
-2.05,-192.357,-28.043
-2.02,-190.251,-27.768
-1.99,-188.04,-27.39
-1.95,-185.724,-26.943
-1.92,-183.337,-26.497
-1.89,-180.811,-26.061
-1.86,-178.143,-25.695
-1.82,-175.687,-25.42
-1.79,-173.511,-25.111
-1.76,-171.089,-24.721
-1.73,-168.457,-24.332
-1.69,-165.93,-23.85
-1.66,-163.263,-23.346
-1.63,-160.42,-22.854
-1.6,-157.648,-22.43
-1.56,-154.84,-22.189
-1.53,-152.313,-21.926
-1.5,-150.137,-21.983
-1.47,-148.347,-22.166
-1.43,-147.084,-22.189
-1.4,-146.136,-22.063
-1.37,-144.873,-21.422
-1.34,-142.978,-20.345
-1.3,-140.451,-19.474
-1.27,-137.468,-18.684
-1.24,-133.748,-17.825
-1.21,-129.712,-17.115
-1.17,-125.255,-16.633
-1.14,-120.973,-16.381
-1.11,-117.218,-16.233
-1.07,-113.533,-16.129
-1.04,-110.129,-16.015
-1.01,-107.356,-15.637
-0.98,-104.268,-14.778
-0.94,-100.723,-13.77
-0.91,-96.968,-12.83
-0.88,-92.932,-12.005
-0.85,-88.651,-11.33
-0.81,-84.439,-10.883
-0.78,-80.333,-10.528
-0.75,-76.402,-10.218
-0.72,-72.717,-9.772
-0.68,-69.102,-9.199
-0.65,-65.382,-8.615
-0.62,-61.838,-8.076
-0.59,-58.293,-7.515
-0.55,-54.749,-6.988
-0.52,-51.45,-6.472
-0.49,-48.116,-6.026
-0.46,-44.781,-5.533
-0.42,-41.447,-5.029
-0.39,-37.973,-4.445
-0.36,-34.428,-3.78
-0.33,-30.849,-3.368
-0.29,-28.603,-4.193
-0.26,-27.971,-5.373
-0.23,-26.181,-3.448
-0.2,-21.97,-0.653
-0.16,-16.46,0.103
-0.13,-11.125,0.195
-0.1,-5.089,0.768
-0.07,0.14,1.26
-0.03,0.877,2.474
0.0,3.369,3.345
0.03,5.58,3.402
0.07,7.37,4.582
0.1,11.301,5.854
0.13,16.495,5.9
0.16,21.864,5.361
0.2,26.497,4.926
0.23,30.779,4.697
0.26,34.639,4.777
0.29,38.008,4.834
0.33,40.535,4.72
0.36,42.079,4.685
0.39,43.272,5.304
0.42,44.922,6.404
0.46,47.484,7.79
0.49,50.677,9.13
0.52,54.573,10.184
0.55,58.714,10.848
0.59,62.961,11.284
0.62,67.102,11.467
0.65,70.927,11.513
0.68,74.016,11.627
0.72,77.034,11.902
0.75,79.947,12.269
0.78,82.544,12.819
0.81,85.281,13.518
0.85,88.37,14.342
0.88,91.493,15.075
0.91,94.687,15.58
0.94,97.951,15.866
0.98,100.407,15.602
1.01,102.022,15.156
1.04,103.145,14.869
1.07,104.268,15.328
1.11,105.917,16.45
1.14,108.199,17.275
1.17,110.55,17.848
1.21,113.252,18.581
1.24,116.656,19.417
1.27,120.833,20.345
1.3,125.43,21.158
1.34,130.098,21.536
1.37,134.38,21.662
1.4,138.31,21.731
1.43,141.995,21.857
1.47,145.013,22.189
1.5,147.681,22.602
1.53,150.383,22.991
1.56,152.875,23.507
1.6,155.507,24.194
1.63,158.385,24.859
1.66,161.368,25.385
1.69,164.281,25.867
1.73,167.334,26.256
1.76,170.247,26.543
1.79,173.125,26.932
1.82,176.143,27.413
1.86,179.231,27.814
1.89,182.039,28.123
1.92,184.636,28.375
1.95,187.057,28.559
1.99,189.163,28.822
2.02,191.409,29.109
2.05,193.515,29.544
2.08,195.551,30.025
2.12,197.726,30.46
2.15,199.937,30.758
2.18,201.938,30.987
2.21,203.903,31.113
2.25,205.763,31.297
2.28,207.588,31.594
2.31,209.448,31.892
2.34,211.273,32.133
2.38,212.888,32.419
2.41,214.713,32.774
2.44,216.573,33.095
2.48,218.222,33.21
2.51,219.801,33.359
2.54,221.556,33.622
2.57,223.276,34.046
2.61,225.171,34.493
2.64,227.277,34.882
2.67,229.382,35.169
2.7,231.488,35.409
2.74,233.348,35.432
2.77,235.173,35.604
2.8,236.928,35.776
2.83,238.577,35.993
2.87,240.297,36.406
2.9,242.157,36.875
2.93,244.157,37.231
2.96,245.947,37.448
3.0,247.737,37.586
3.03,249.527,37.643
3.06,251.071,37.838
3.09,252.756,38.09
3.13,254.3,38.25
3.16,255.598,38.33
3.19,256.651,38.491
3.22,257.774,38.605
3.26,258.687,38.64
3.29,259.494,38.674
3.32,260.161,38.869
3.35,261.073,39.212
3.39,262.161,39.625
3.42,263.425,39.923
3.45,264.723,40.037
3.48,266.057,40.14
3.52,267.25,40.198
3.55,268.513,40.335
3.58,269.566,40.484
3.62,270.724,40.61
3.65,271.848,40.793
3.68,273.076,41.057
3.71,274.164,41.16
3.75,275.182,41.148
3.78,275.954,41.068
3.81,276.48,41.057
3.84,276.831,40.965
3.88,277.042,41.022
3.91,277.428,41.309
3.94,277.884,41.572
3.97,278.375,41.607
4.01,278.761,41.618
4.04,279.288,41.698
4.07,279.639,41.744
4.1,280.025,41.652
4.14,280.235,41.652
4.17,280.656,41.87
4.2,281.148,41.985
4.23,281.569,41.985
4.27,281.85,41.927
4.3,281.885,41.813
4.33,281.85,41.664
4.36,281.639,41.515
4.4,281.358,41.492
4.43,281.078,41.607
4.46,280.867,41.744
4.49,280.797,41.71
4.53,280.516,41.481
4.56,279.814,41.148
4.59,278.831,40.793
4.62,277.744,40.484
4.66,276.445,40.369
4.69,275.322,40.427
4.72,274.234,40.369
4.76,273.006,40.243
4.79,271.848,40.049
4.82,270.549,39.671
4.85,268.935,39.327
4.89,267.39,39.086
4.92,265.881,38.972
4.95,264.513,38.972
4.98,263.249,38.869
5.02,261.951,38.743
5.05,260.863,38.548
5.08,259.459,38.17
5.11,257.985,37.757
5.15,256.511,37.517
5.18,255.177,37.402
5.21,253.738,37.265
5.24,252.299,37.001
5.28,250.861,36.807
5.31,249.457,36.681
5.34,248.053,36.406
5.37,246.579,36.074
5.41,244.894,35.913
5.44,243.456,35.707
5.47,241.876,35.432
5.5,240.086,35.191
5.54,238.507,34.951
5.57,236.717,34.676
5.6,234.962,34.286
5.63,232.751,33.668
5.67,230.435,33.485
5.7,228.505,33.381
5.73,226.54,33.049
5.76,224.258,32.717
5.8,222.083,32.499
5.83,220.187,32.27
5.86,218.117,31.766
5.89,215.871,31.503
5.93,214.116,31.48
5.96,212.466,31.274
5.99,210.641,30.999
6.03,209.027,30.735
6.06,207.483,30.46
6.09,205.658,30.059
6.12,203.763,29.532
6.16,201.622,29.005
6.19,199.236,28.662
6.22,196.884,28.444
6.25,194.673,28.238
6.29,192.252,28.055
6.32,190.356,27.86
6.35,188.461,27.539
6.38,186.32,27.115
6.42,184.18,26.691
6.45,182.074,26.187
6.48,179.547,25.752
6.51,177.231,25.443
6.55,174.915,25.122
6.58,172.388,24.744
6.61,169.685,24.217
6.64,166.948,23.77
6.68,163.895,23.175
6.71,160.841,22.728
6.74,157.893,22.327
6.77,154.735,22.121
6.81,152.032,21.983
6.84,149.576,21.571
6.87,146.873,21.113
6.9,144.136,20.746
6.94,141.714,20.311
6.97,139.012,19.852
7.0,136.205,19.348
7.03,133.467,18.73
7.07,130.414,18.203
7.1,127.325,17.905
7.13,124.693,17.596
7.17,121.675,17.149
7.2,118.481,16.714
7.23,115.779,16.233
7.26,112.971,15.74
7.3,109.918,15.408
7.33,107.111,14.972
7.36,104.163,14.319
7.39,100.723,13.655
7.43,97.319,12.956
7.46,93.529,12.189
7.49,89.423,11.582
7.52,85.703,11.1
7.56,81.912,10.665
7.59,77.982,10.356
7.62,74.577,9.989
7.65,71.138,9.462
7.69,67.453,9.027
7.72,64.33,8.615
7.75,61.311,8.065
7.78,57.942,7.526
7.82,54.819,7.045
7.85,51.801,6.461
7.88,48.361,5.934
7.91,45.062,5.338
7.95,41.553,4.651
7.98,37.762,4.044
8.01,34.218,3.815
8.04,32.007,4.422
8.08,31.305,5.831
8.11,30.042,4.468
8.14,25.865,1.157
8.17,20.18,-0.218
8.21,14.214,-0.195
8.24,8.669,-0.596
8.27,2.0,-1.077
8.3,-0.421,-1.581
8.34,-1.228,-2.704
8.37,-3.86,-2.99
8.4,-5.299,-3.482
8.44,-7.44,-4.846
8.47,-11.441,-5.739
8.5,-16.846,-5.934
8.53,-22.531,-5.842
8.57,-28.076,-5.556
8.6,-32.954,-5.132
8.63,-36.78,-4.892
8.66,-39.868,-4.8
8.7,-42.149,-4.617
8.73,-43.167,-4.708
8.76,-44.115,-5.441
8.79,-45.975,-6.701
8.83,-48.361,-8.168
8.86,-51.625,-9.554
8.89,-55.696,-10.505
8.92,-59.943,-11.181
8.96,-64.54,-11.57
8.99,-68.927,-11.673
9.02,-72.437,-11.685
9.05,-75.735,-11.799
9.09,-79.034,-11.994
9.12,-81.456,-12.406
9.15,-83.737,-13.059
9.18,-86.58,-13.792
9.22,-89.563,-14.549
9.25,-92.441,-15.35
9.28,-96.056,-15.98
9.31,-99.565,-16.45
9.35,-102.969,-16.908
9.38,-106.725,-17.286
9.41,-110.199,-17.71
9.44,-113.463,-18.146
9.48,-116.937,-18.443
9.51,-119.85,-18.661
9.54,-122.412,-19.28
9.58,-125.5,-19.864
9.61,-128.589,-20.448
9.64,-131.607,-21.101
9.67,-135.046,-21.64
9.71,-138.451,-22.075
9.74,-141.258,-22.361
9.77,-144.417,-22.602
9.8,-147.26,-22.854
9.84,-149.646,-23.278
9.87,-152.524,-23.747
9.9,-155.367,-24.194
9.93,-157.928,-24.71
9.97,-160.736,-25.214
10.0,-163.544,-25.512
10.03,-166.0,-25.809
10.06,-168.527,-26.199
10.1,-171.3,-26.485
10.13,-173.546,-26.909
10.16,-176.353,-27.482
10.19,-179.266,-27.917
10.23,-181.898,-28.295
10.26,-184.496,-28.673
10.29,-187.198,-28.902
10.32,-189.374,-29.028
10.36,-191.374,-29.292
10.39,-193.761,-29.635
10.42,-195.831,-30.082
10.45,-197.972,-30.495
10.49,-200.183,-30.667
10.52,-202.008,-30.827
10.55,-203.763,-31.056
10.58,-205.588,-31.159
10.62,-207.132,-31.342
10.65,-208.676,-31.835
10.68,-210.747,-32.362
10.72,-212.817,-32.843
10.75,-214.818,-33.187
10.78,-217.029,-33.301
10.81,-218.854,-33.393
10.85,-220.573,-33.611
10.88,-222.539,-33.84
10.91,-224.399,-34.103
10.94,-225.978,-34.401
10.98,-227.873,-34.813
11.01,-229.733,-35.1
11.04,-231.383,-35.272
11.07,-232.997,-35.329
11.11,-234.752,-35.535
11.14,-236.296,-35.925
11.17,-237.946,-36.096
11.2,-239.455,-36.234
11.24,-240.964,-36.509
11.27,-242.754,-36.944
11.3,-244.614,-37.242
11.33,-246.123,-37.357
11.37,-247.737,-37.46
11.4,-249.211,-37.54
11.43,-250.545,-37.757
11.46,-251.949,-38.067
11.5,-253.458,-38.319
11.53,-254.826,-38.571
11.56,-256.3,-38.766
11.59,-257.739,-38.811
11.63,-258.757,-38.834
11.66,-259.74,-38.949
11.69,-260.898,-39.155
11.72,-262.056,-39.476
11.76,-263.214,-39.842
11.79,-264.442,-40.037
11.82,-265.671,-40.186
11.85,-267.039,-40.312
11.89,-268.303,-40.427
11.92,-269.461,-40.507
11.95,-270.584,-40.656
11.99,-271.918,-40.828
12.02,-273.041,-40.988
12.05,-274.094,-41.137
12.08,-274.971,-41.068
12.12,-275.603,-41.057
12.15,-276.094,-41.16
12.18,-276.585,-41.114
12.21,-276.936,-41.137
12.25,-277.112,-41.343
12.28,-277.603,-41.435
12.31,-278.13,-41.79
12.34,-278.902,-41.859
12.38,-279.604,-42.019
12.41,-280.305,-41.927
12.44,-280.551,-41.675
12.47,-280.867,-41.71
12.51,-281.218,-41.836
12.54,-281.499,-41.939
12.57,-281.744,-41.87
12.6,-281.815,-41.801
12.64,-281.709,-41.721
12.67,-281.464,-41.549
12.7,-280.972,-41.32
12.73,-280.376,-41.332
12.77,-279.955,-41.503
12.8,-279.639,-41.595
12.83,-279.393,-41.584
12.86,-278.972,-41.423
12.9,-278.34,-41.16
12.93,-277.638,-40.816
12.96,-276.55,-40.495
12.99,-275.357,-40.346
13.03,-274.339,-40.358
13.06,-273.216,-40.369
13.09,-272.304,-40.255
13.13,-271.286,-40.003
13.16,-269.847,-39.693
13.19,-268.408,-39.373
13.22,-267.039,-39.098
13.26,-265.53,-38.972
13.29,-264.127,-38.914
13.32,-262.933,-38.823
13.35,-261.705,-38.766
13.39,-260.652,-38.651
13.42,-259.389,-38.273
13.45,-257.95,-37.849
13.48,-256.335,-37.551
13.52,-254.791,-37.322
13.55,-253.212,-37.082
13.58,-251.633,-36.91
13.61,-250.053,-36.784
13.65,-248.579,-36.578
13.68,-246.965,-36.28
13.71,-245.351,-36.039
13.74,-243.806,-35.787
13.78,-242.017,-35.604
13.81,-240.508,-35.363
13.84,-238.893,-35.043
13.87,-237.138,-34.905
13.91,-235.524,-34.664
