Trigger_Date,2023/06/26
Trigger_Time,T 08:17:56.275 PDT
Samples_Per_Cycle,512
Microseconds_Per_Sample,32.545
Time (ms),Voltage (V),Current (A)
-16.66,-101.46,-2.039
-16.63,-105.251,-1.936
-16.6,-108.655,-1.638
-16.57,-111.778,-1.478
-16.53,-114.832,-1.661
-16.5,-118.201,-1.833
-16.47,-121.745,-1.799
-16.44,-125.325,-1.844
-16.4,-129.08,-1.993
-16.37,-132.695,-1.867
-16.34,-135.959,-1.535
-16.31,-138.907,-1.455
-16.27,-142.03,-1.684
-16.24,-145.364,-1.799
-16.21,-148.804,-1.718
-16.17,-152.208,-1.787
-16.14,-155.612,-1.799
-16.11,-158.771,-1.512
-16.08,-161.543,-1.272
-16.04,-164.175,-1.375
-16.01,-167.088,-1.65
-15.98,-170.493,-1.879
-15.95,-174.142,-1.913
-15.91,-177.722,-1.799
-15.88,-181.056,-1.695
-15.85,-183.934,-1.352
-15.82,-186.356,-1.077
-15.78,-187.128,-0.08
-15.75,-183.899,2.978
-15.72,-177.02,4.559
-15.69,-170.457,2.738
-15.65,-167.053,0.836
-15.62,-167.229,-0.733
-15.59,-171.124,-3.104
-15.56,-178.635,-4.777
-15.52,-188.356,-5.35
-15.49,-198.779,-5.476
-15.46,-208.887,-5.109
-15.43,-217.52,-4.032
-15.39,-223.767,-2.543
-15.36,-227.101,-1.031
-15.33,-228.014,0.126
-15.3,-227.101,0.848
-15.26,-225.346,1.042
-15.23,-223.907,0.584
-15.2,-223.662,-0.206
-15.17,-224.995,-1.077
-15.13,-227.838,-1.821
-15.1,-231.664,-2.188
-15.07,-235.84,-2.165
-15.04,-239.595,-1.81
-15.0,-242.438,-1.272
-14.97,-244.543,-0.848
-14.94,-245.772,-0.447
-14.91,-246.333,-0.137
-14.87,-246.754,-0.16
-14.84,-247.176,-0.321
-14.81,-247.878,-0.401
-14.78,-248.895,-0.607
-14.74,-250.545,-1.077
-14.71,-253.072,-1.546
-14.68,-256.371,-1.81
-14.65,-259.915,-1.867
-14.61,-263.319,-1.707
-14.58,-266.197,-1.352
-14.55,-268.233,-0.79
-14.52,-269.356,-0.389
-14.48,-269.812,-0.069
-14.45,-269.847,0.08
-14.42,-270.093,-0.195
-14.38,-270.9,-0.607
-14.35,-272.269,-0.813
-14.32,-273.883,-0.871
-14.29,-275.252,-0.653
-14.25,-276.34,-0.401
-14.22,-277.217,-0.458
-14.19,-278.375,-0.722
-14.16,-280.025,-0.939
-14.12,-281.99,-1.1
-14.09,-284.131,-1.157
-14.06,-286.307,-1.088
-14.03,-288.097,-0.79
-13.99,-289.29,-0.504
-13.96,-290.237,-0.424
-13.93,-291.15,-0.47
-13.9,-292.133,-0.55
-13.86,-293.256,-0.607
-13.83,-294.519,-0.63
-13.8,-295.607,-0.55
-13.77,-296.449,-0.344
-13.73,-296.906,-0.137
-13.7,-296.976,0.046
-13.67,-296.66,0.229
-13.64,-296.274,0.241
-13.6,-296.239,-0.126
-13.57,-296.695,-0.367
-13.54,-297.256,-0.286
-13.51,-297.748,-0.206
-13.47,-298.239,-0.241
-13.44,-298.52,-0.115
-13.41,-298.485,0.149
-13.38,-298.239,0.172
-13.34,-298.099,-0.069
-13.31,-298.309,-0.126
-13.28,-298.45,-0.046
-13.25,-298.52,0.011
-13.21,-298.415,0.092
-13.18,-298.099,0.286
-13.15,-297.432,0.378
-13.12,-297.046,0.126
-13.08,-297.116,-0.195
-13.05,-297.467,-0.218
-13.02,-297.678,0.011
-12.99,-297.256,0.378
-12.95,-295.923,0.905
-12.92,-293.782,1.283
-12.89,-291.36,1.34
-12.86,-289.255,0.962
-12.82,-287.991,0.447
-12.79,-287.395,0.149
-12.76,-287.184,0.046
-12.73,-286.903,0.206
-12.69,-286.026,0.63
-12.66,-284.412,1.008
-12.63,-282.446,1.088
-12.59,-280.727,0.836
-12.56,-279.358,0.584
-12.53,-278.375,0.412
-12.5,-277.744,0.252
-12.46,-277.077,0.355
-12.43,-275.954,0.825
-12.4,-274.059,1.157
-12.37,-271.918,1.146
-12.33,-269.777,1.042
-12.3,-267.812,0.997
-12.27,-266.092,0.848
-12.24,-264.688,0.63
-12.2,-263.319,0.687
-12.17,-261.565,1.1
-12.14,-259.319,1.26
-12.11,-256.967,1.168
-12.07,-254.861,1.077
-12.04,-252.861,1.008
-12.01,-251.141,0.813
-11.98,-249.738,0.596
-11.94,-248.509,0.653
-11.91,-246.93,0.939
-11.88,-245.0,1.123
-11.85,-242.719,1.191
-11.81,-240.402,1.249
-11.78,-237.946,1.306
-11.75,-235.489,1.249
-11.72,-233.348,1.031
-11.68,-231.383,0.939
-11.65,-229.242,1.249
-11.62,-227.101,1.157
-11.59,-225.206,0.756
-11.55,-223.557,0.894
-11.52,-221.556,1.157
-11.49,-219.415,1.134
-11.46,-217.485,0.859
-11.42,-215.59,1.031
-11.39,-213.168,1.443
-11.36,-210.255,1.684
-11.33,-207.483,1.283
-11.29,-205.132,1.042
-11.26,-203.166,1.042
-11.23,-201.271,0.962
-11.2,-199.411,0.905
-11.16,-197.305,1.18
-11.13,-194.849,1.443
-11.1,-192.041,1.443
-11.07,-188.847,1.833
-11.03,-185.443,1.833
-11.0,-182.53,1.226
-10.97,-180.354,0.951
-10.94,-178.038,1.409
-10.9,-175.336,1.443
-10.87,-172.493,1.478
-10.84,-169.756,1.443
-10.8,-166.878,1.443
-10.77,-164.0,1.592
-10.74,-161.087,1.489
-10.71,-158.315,1.398
-10.67,-155.507,1.466
-10.64,-152.489,1.638
-10.61,-149.049,1.879
-10.58,-145.224,2.096
-10.54,-141.188,2.131
-10.51,-137.292,1.936
-10.48,-133.748,1.707
-10.45,-130.695,1.501
-10.41,-128.027,1.329
-10.38,-125.43,1.272
-10.35,-122.833,1.409
-10.32,-119.955,1.604
-10.28,-116.692,1.753
-10.25,-113.287,1.799
-10.22,-109.813,1.799
-10.19,-106.198,1.902
-10.15,-102.548,1.959
-10.12,-98.618,2.051
-10.09,-94.441,2.268
-10.06,-89.949,2.417
-10.02,-85.422,2.348
-9.99,-81.105,2.142
-9.96,-77.174,1.925
-9.93,-73.665,1.707
-9.89,-70.682,1.443
-9.86,-67.909,1.352
-9.83,-65.277,1.466
-9.8,-62.224,1.615
-9.76,-59.065,1.707
-9.73,-55.766,1.695
-9.7,-52.432,1.764
-9.67,-48.817,1.902
-9.63,-45.168,1.913
-9.6,-41.553,1.867
-9.57,-37.868,1.902
-9.54,-34.358,1.833
-9.5,-30.884,1.73
-9.47,-27.585,1.707
-9.44,-24.286,1.718
-9.41,-20.811,1.833
-9.37,-17.056,2.039
-9.34,-12.845,2.28
-9.31,-8.318,2.44
-9.28,-3.615,2.429
-9.24,0.912,2.314
-9.21,5.089,2.051
-9.18,8.704,1.776
-9.15,11.932,1.558
-9.11,14.915,1.443
-9.08,17.688,1.489
-9.05,20.671,1.615
-9.01,23.9,1.741
-8.98,27.339,1.799
-8.95,30.849,1.833
-8.92,34.428,1.879
-8.88,38.148,1.959
-8.85,42.079,2.096
-8.82,46.22,2.188
-8.79,50.291,2.154
-8.75,54.433,2.085
-8.72,58.328,1.959
-8.69,62.013,1.913
-8.66,65.768,1.97
-8.62,69.418,1.867
-8.59,72.787,1.661
-8.56,75.911,1.535
-8.53,78.929,1.558
-8.49,81.912,1.558
-8.46,84.966,1.569
-8.43,88.124,1.707
-8.4,91.669,1.936
-8.36,95.494,2.062
-8.33,99.46,2.016
-8.3,103.075,1.81
-8.27,106.444,1.673
-8.23,109.602,1.535
-8.2,112.515,1.489
-8.17,115.358,1.489
-8.14,118.236,1.501
-8.1,121.465,1.764
-8.07,124.974,1.89
-8.04,128.659,1.913
-8.01,132.239,1.833
-7.97,135.608,1.718
-7.94,138.977,1.684
-7.91,142.171,1.673
-7.88,145.505,1.787
-7.84,149.225,2.016
-7.81,153.085,2.016
-7.78,156.7,1.764
-7.75,159.929,1.638
-7.71,162.982,1.569
-7.68,165.895,1.42
-7.65,168.633,1.363
-7.62,171.405,1.478
-7.58,174.213,1.512
-7.55,177.161,1.546
-7.52,180.074,1.501
-7.49,182.776,1.352
-7.45,185.197,1.18
-7.42,187.654,1.26
-7.39,190.251,1.466
-7.36,193.269,1.615
-7.32,196.393,1.661
-7.29,199.551,1.661
-7.26,202.534,1.466
-7.22,205.026,1.18
-7.19,207.062,0.939
-7.16,208.887,0.871
-7.13,210.571,0.882
-7.09,212.291,0.916
-7.06,214.081,0.928
-7.03,215.941,0.997
-7.0,217.836,0.974
-6.96,219.485,0.779
-6.93,220.959,0.745
-6.9,222.644,0.928
-6.87,224.644,1.168
-6.83,227.031,1.34
-6.8,229.733,1.478
-6.77,232.681,1.615
-6.74,235.559,1.432
-6.7,237.805,0.962
-6.67,239.525,0.733
-6.64,240.929,0.733
-6.61,242.403,0.756
-6.57,243.842,0.733
-6.54,245.351,0.859
-6.51,247.176,1.042
-6.48,249.211,1.065
-6.44,250.896,0.768
-6.41,252.405,0.733
-6.38,254.089,1.031
-6.35,256.09,1.02
-6.31,257.95,0.962
-6.28,259.775,0.951
-6.25,261.88,1.168
-6.22,263.986,1.146
-6.18,265.881,0.848
-6.15,267.39,0.699
-6.12,268.864,0.756
-6.09,270.303,0.836
-6.05,272.023,0.905
-6.02,273.848,0.974
-5.99,275.392,0.745
-5.96,276.445,0.332
-5.92,277.112,0.321
-5.89,277.603,0.252
-5.86,278.165,0.344
-5.83,279.358,0.802
-5.79,281.148,1.111
-5.76,283.218,1.1
-5.73,285.324,1.088
-5.7,287.184,0.939
-5.66,288.658,0.584
-5.63,289.571,0.378
-5.6,290.413,0.435
-5.57,291.396,0.561
-5.53,292.519,0.642
-5.5,293.747,0.676
-5.47,294.975,0.619
-5.44,295.853,0.401
-5.4,296.449,0.183
-5.37,296.695,0.092
-5.34,296.87,0.069
-5.3,297.046,0.103
-5.27,297.607,0.47
-5.24,298.485,0.481
-5.21,299.011,0.115
-5.17,299.397,0.241
-5.14,299.924,0.321
-5.11,300.45,0.424
-5.08,300.906,0.321
-5.04,301.328,0.195
-5.01,301.714,0.321
-4.98,302.065,0.367
-4.95,301.959,0.195
-4.91,301.573,-0.241
-4.88,300.731,-0.733
-4.85,299.081,-0.951
-4.82,297.221,-0.997
-4.78,295.712,-0.699
-4.75,294.975,-0.069
-4.72,295.256,0.367
-4.69,295.888,0.355
-4.65,296.133,0.023
-4.62,295.677,-0.424
-4.59,294.344,-0.894
-4.56,292.203,-1.272
-4.52,289.922,-1.237
-4.49,287.921,-0.836
-4.46,286.623,-0.515
-4.43,285.71,-0.389
-4.39,284.903,-0.389
-4.36,284.061,-0.447
-4.33,283.008,-0.63
-4.3,281.674,-0.733
-4.26,280.446,-0.607
-4.23,279.533,-0.367
-4.2,278.796,-0.321
-4.17,278.059,-0.412
-4.13,277.007,-0.619
-4.1,275.497,-0.939
-4.07,273.462,-1.168
-4.04,271.216,-1.18
-4.0,269.005,-1.1
-3.97,267.004,-0.985
-3.94,265.25,-0.825
-3.91,263.705,-0.71
-3.87,262.091,-0.894
-3.84,260.091,-1.157
-3.81,257.845,-1.226
-3.78,255.634,-1.134
-3.74,253.387,-1.077
-3.71,251.492,-0.974
-3.68,250.229,-0.401
-3.65,249.562,-0.172
-3.61,248.685,-0.63
-3.58,247.035,-1.054
-3.55,244.965,-1.146
-3.51,242.543,-1.272
-3.48,239.876,-1.478
-3.45,237.138,-1.386
-3.42,234.787,-1.1
-3.38,232.857,-0.882
-3.35,231.102,-0.848
-3.32,229.453,-0.882
-3.29,227.768,-0.848
-3.25,226.048,-0.882
-3.22,224.294,-0.962
-3.19,222.398,-0.997
-3.16,220.328,-1.042
-3.12,218.222,-1.146
-3.09,215.765,-1.317
-3.06,213.063,-1.512
-3.03,210.08,-1.535
-2.99,207.272,-1.42
-2.96,204.745,-1.226
-2.93,202.57,-1.008
-2.9,200.815,-0.756
-2.86,199.516,-0.619
-2.83,198.042,-0.79
-2.8,196.112,-1.168
-2.77,193.761,-1.249
-2.73,190.742,-1.787
-2.7,187.268,-1.925
-2.67,184.109,-1.409
-2.64,181.548,-1.111
-2.6,178.951,-1.501
-2.57,176.108,-1.535
-2.54,173.405,-1.283
-2.51,170.844,-1.226
-2.47,167.79,-1.787
-2.44,164.211,-2.039
-2.41,160.736,-1.65
-2.38,157.648,-1.478
-2.34,155.051,-1.283
-2.31,152.734,-1.042
-2.28,150.523,-1.191
-2.25,147.856,-1.455
-2.21,144.803,-1.661
-2.18,141.399,-1.867
-2.15,137.679,-2.005
-2.12,133.818,-1.97
-2.08,130.063,-1.913
-2.05,126.448,-1.844
-2.02,122.903,-1.81
-1.99,119.464,-1.741
-1.95,116.13,-1.684
-1.92,113.042,-1.546
-1.89,110.129,-1.409
-1.86,107.321,-1.466
-1.82,104.163,-1.718
-1.79,100.513,-2.039
-1.76,96.196,-2.325
-1.72,91.493,-2.52
-1.69,86.615,-2.589
-1.66,81.842,-2.36
-1.63,77.982,-1.753
-1.59,75.174,-1.191
-1.56,72.998,-0.962
-1.53,70.927,-1.134
-1.5,68.471,-1.409
-1.46,65.312,-1.707
-1.43,61.417,-2.257
-1.4,56.609,-2.704
-1.37,51.45,-2.681
-1.33,46.571,-2.417
-1.3,42.009,-2.314
-1.27,37.727,-2.142
-1.24,33.797,-1.902
-1.2,30.287,-1.776
-1.17,26.848,-1.753
-1.14,23.549,-1.661
-1.11,20.461,-1.512
-1.07,17.653,-1.363
-1.04,15.126,-1.26
-1.01,12.704,-1.26
-0.98,10.072,-1.398
-0.94,7.159,-1.558
-0.91,3.931,-1.776
-0.88,0.211,-2.016
-0.85,-3.931,-2.245
-0.81,-8.282,-2.245
-0.78,-12.459,-2.108
-0.75,-16.53,-2.051
-0.72,-20.566,-2.142
-0.68,-24.707,-2.165
-0.65,-28.778,-2.051
-0.62,-32.674,-1.97
-0.59,-36.499,-1.982
-0.55,-40.254,-1.902
-0.52,-43.764,-1.764
-0.49,-47.133,-1.73
-0.46,-50.537,-1.73
-0.42,-53.731,-1.638
-0.39,-56.784,-1.512
-0.36,-59.767,-1.535
-0.33,-62.891,-1.673
-0.29,-66.19,-1.707
-0.26,-69.524,-1.73
-0.23,-73.068,-1.867
-0.2,-76.718,-1.925
-0.16,-80.333,-1.821
-0.13,-83.842,-1.81
-0.1,-87.492,-1.936
-0.07,-91.318,-1.982
-0.03,-95.143,-1.947
0.0,-98.898,-1.936
0.03,-102.583,-1.89
0.07,-106.058,-1.741
0.1,-109.216,-1.524
0.13,-112.129,-1.443
0.16,-114.972,-1.466
0.2,-117.955,-1.604
0.23,-121.219,-1.753
0.26,-124.869,-1.982
0.29,-128.764,-2.062
0.33,-132.765,-2.096
0.36,-136.52,-1.799
0.39,-140.065,-1.741
0.42,-143.645,-2.005
0.46,-147.119,-1.65
0.49,-150.278,-1.535
0.52,-153.506,-1.787
0.55,-156.595,-1.524
0.59,-159.543,-1.317
0.62,-162.315,-1.546
0.65,-165.369,-1.638
0.68,-168.492,-1.558
0.72,-171.581,-1.615
0.75,-174.669,-1.581
0.78,-177.406,-1.317
0.81,-179.512,-0.928
0.85,-180.951,-0.504
0.88,-181.723,-0.286
0.91,-182.355,-0.344
0.94,-183.653,-0.825
0.98,-186.075,-1.581
1.01,-189.865,-2.314
1.04,-194.638,-2.681
1.07,-199.727,-2.635
1.11,-204.43,-2.325
1.14,-208.571,-1.902
1.17,-211.729,-1.466
1.2,-214.362,-1.191
1.24,-216.608,-1.088
1.27,-218.573,-0.951
1.3,-220.293,-0.79
1.33,-221.626,-0.664
1.37,-222.82,-0.493
1.4,-223.592,-0.355
1.43,-224.504,-0.493
1.46,-225.768,-0.768
1.5,-227.452,-0.951
1.53,-229.453,-1.134
1.56,-231.804,-1.317
1.59,-234.19,-1.168
1.63,-236.331,-0.974
1.66,-237.875,-0.722
1.69,-239.139,-0.527
1.72,-240.508,-0.779
1.76,-242.017,-0.813
1.79,-243.771,-0.928
1.82,-245.982,-1.306
1.86,-248.65,-1.466
1.89,-251.212,-1.249
1.92,-253.493,-1.1
1.95,-255.598,-1.088
1.99,-257.529,-0.928
2.02,-259.108,-0.733
2.05,-260.582,-0.745
2.08,-262.196,-0.836
2.12,-263.67,-0.768
2.15,-265.004,-0.607
2.18,-266.162,-0.561
2.21,-267.32,-0.653
2.25,-268.689,-0.745
2.28,-270.338,-0.848
2.31,-272.058,-0.951
2.34,-273.918,-0.997
2.38,-275.462,-0.687
2.41,-276.48,-0.321
2.44,-277.182,-0.332
2.47,-278.094,-0.573
2.51,-279.463,-0.79
2.54,-281.183,-0.997
2.57,-283.289,-1.168
2.6,-285.464,-1.157
2.64,-287.36,-0.848
2.67,-288.623,-0.481
2.7,-289.5,-0.367
2.73,-290.273,-0.412
2.77,-291.22,-0.504
2.8,-292.343,-0.642
2.83,-293.677,-0.699
2.86,-294.905,-0.596
2.9,-295.677,-0.298
2.93,-296.133,-0.115
2.96,-296.204,-0.023
2.99,-296.169,0.069
3.03,-296.169,0.034
3.06,-296.66,-0.458
3.09,-297.467,-0.527
3.12,-297.888,0.103
3.16,-297.923,-0.023
3.19,-298.204,-0.332
3.22,-298.941,-0.367
3.25,-299.748,-0.481
3.29,-300.555,-0.412
3.32,-301.328,-0.493
3.35,-302.029,-0.573
3.38,-302.17,-0.699
3.42,-301.994,-0.63
3.45,-301.678,-0.195
3.48,-301.468,0.321
3.51,-300.485,0.71
3.55,-299.187,0.745
3.58,-298.029,0.493
3.61,-297.362,0.275
3.65,-296.765,0.275
3.68,-296.028,0.447
3.71,-294.905,0.687
3.74,-293.431,0.894
3.78,-291.606,1.02
3.81,-289.851,0.859
3.84,-288.623,0.435
3.87,-288.062,0.183
3.91,-287.605,0.206
3.94,-286.974,0.424
3.97,-285.745,0.768
4.0,-283.99,1.065
4.04,-281.885,1.168
4.07,-279.919,0.962
4.1,-278.41,0.63
4.13,-277.463,0.424
4.17,-276.726,0.309
4.2,-276.024,0.355
4.23,-274.866,0.722
4.26,-273.181,1.077
4.3,-270.97,1.203
4.33,-268.759,1.168
4.36,-266.583,1.088
4.39,-264.653,0.939
4.43,-262.933,0.836
4.46,-261.249,0.894
4.49,-259.143,1.249
4.52,-256.757,1.283
4.56,-254.686,0.905
4.59,-252.931,0.905
4.62,-251.212,0.916
4.65,-249.878,0.573
4.69,-249.001,0.252
4.72,-248.299,0.412
4.75,-247.141,0.779
4.78,-245.421,0.997
4.82,-243.35,1.111
4.85,-240.999,1.306
4.88,-238.261,1.501
4.91,-235.454,1.466
4.95,-232.892,1.26
4.98,-230.505,1.146
5.01,-228.4,1.065
5.04,-226.434,0.939
5.08,-224.785,0.859
5.11,-223.17,0.802
5.14,-221.732,0.722
5.17,-220.363,0.699
5.21,-218.889,0.779
5.24,-217.064,1.042
5.27,-214.748,1.352
5.3,-211.94,1.558
5.34,-208.852,1.661
5.37,-205.728,1.615
5.4,-202.956,1.34
5.44,-200.639,1.088
5.47,-198.639,0.997
5.5,-196.568,1.077
5.53,-194.357,1.191
5.57,-192.041,1.283
5.6,-189.339,1.455
5.63,-186.566,1.478
5.66,-184.004,1.214
5.7,-181.653,1.123
5.73,-179.442,1.237
5.76,-176.915,1.386
5.79,-174.178,1.466
5.83,-171.124,1.627
5.86,-167.86,1.776
5.89,-164.702,1.627
5.92,-161.929,1.272
5.96,-159.648,1.042
5.99,-157.051,1.535
6.02,-153.822,1.867
6.05,-149.927,2.096
6.09,-146.136,1.947
6.12,-142.662,1.627
6.15,-139.503,1.661
6.18,-136.24,1.695
6.22,-133.221,1.524
6.25,-130.344,1.386
6.28,-127.536,1.524
6.31,-124.307,1.764
6.35,-120.798,1.947
6.38,-116.937,2.039
6.41,-113.042,1.993
6.44,-109.427,1.787
6.48,-106.058,1.695
6.51,-102.724,1.73
6.54,-99.284,1.821
6.57,-95.529,2.016
6.61,-91.423,2.222
6.64,-87.106,2.291
6.67,-82.825,2.188
6.7,-78.754,2.039
6.74,-74.998,1.856
6.77,-71.7,1.604
6.8,-68.822,1.398
6.83,-66.084,1.375
6.87,-63.347,1.489
6.9,-60.364,1.604
6.93,-57.24,1.592
6.96,-54.047,1.707
7.0,-50.502,1.959
7.03,-46.712,2.051
7.06,-42.816,1.97
7.09,-39.061,1.959
7.13,-35.165,2.016
7.16,-31.235,2.073
7.19,-27.234,2.131
7.22,-23.022,2.188
7.26,-18.811,2.211
7.29,-14.6,2.177
7.32,-10.493,2.085
7.36,-6.563,1.993
7.39,-2.808,1.879
7.42,0.562,1.673
7.45,3.58,1.443
7.49,6.317,1.386
7.52,8.984,1.386
7.55,11.827,1.501
7.58,14.915,1.707
7.62,18.425,1.913
7.65,22.25,2.085
7.68,26.462,2.234
7.71,30.743,2.257
7.75,34.885,2.131
7.78,38.991,2.062
7.81,42.921,2.005
7.84,46.466,1.741
7.88,49.8,1.65
7.91,53.029,1.73
7.94,56.293,1.65
7.97,59.451,1.592
8.01,62.785,1.81
8.04,66.47,2.028
8.07,70.296,2.005
8.1,74.051,1.879
8.14,77.631,1.856
8.17,81.105,1.776
8.2,84.404,1.661
8.23,87.668,1.673
8.27,91.037,1.81
8.3,94.582,1.879
8.33,98.196,1.867
8.36,101.706,1.787
8.4,105.11,1.718
8.43,108.339,1.673
8.46,111.497,1.638
8.49,114.761,1.707
8.53,118.271,1.902
8.56,122.061,2.016
8.59,125.851,1.97
8.62,129.326,1.741
8.66,132.52,1.524
8.69,135.503,1.546
8.72,138.416,1.466
8.75,141.504,1.673
8.79,144.662,1.684
8.82,147.926,1.673
8.85,151.085,1.684
8.88,154.173,1.501
8.92,156.981,1.398
8.95,159.824,1.524
8.98,163.087,1.821
9.01,166.667,1.947
9.05,170.387,1.947
9.08,174.107,1.879
9.11,177.512,1.695
9.15,180.424,1.398
9.18,182.846,1.111
9.21,184.846,1.008
9.24,187.022,1.134
9.28,189.444,1.363
9.31,192.252,1.558
9.34,195.41,1.741
9.37,198.779,1.764
9.41,202.008,1.592
9.44,204.64,1.237
9.47,206.711,0.928
9.5,208.325,0.722
9.54,209.764,0.733
9.57,211.273,0.859
9.6,213.028,0.974
9.63,214.958,1.065
9.67,217.064,1.1
9.7,219.029,0.985
9.73,220.854,0.916
9.76,222.749,1.02
9.8,224.925,1.214
9.83,227.417,1.329
9.86,229.839,1.306
9.89,232.33,1.214
9.93,234.436,1.042
9.96,236.156,0.802
9.99,237.63,0.664
10.02,238.963,0.722
10.06,240.508,0.859
10.09,242.262,0.985
10.12,244.228,1.031
10.15,246.404,1.226
10.19,248.755,1.249
10.22,250.896,0.962
10.25,252.615,0.802
10.28,254.23,0.916
10.32,256.055,1.008
10.35,258.02,0.985
10.38,259.915,1.02
10.41,261.74,0.882
10.45,263.319,0.756
10.48,264.653,0.653
10.51,265.881,0.607
10.54,267.075,0.596
10.58,268.338,0.733
10.61,269.917,0.951
10.64,271.953,1.1
10.67,274.023,1.1
10.71,275.638,0.779
10.74,276.796,0.378
10.77,277.638,0.389
10.8,278.516,0.607
10.84,279.849,0.745
10.87,281.393,0.836
10.9,283.078,0.962
10.94,285.043,1.031
10.97,286.763,0.859
11.0,288.062,0.515
11.03,289.009,0.401
11.07,289.781,0.447
11.1,290.729,0.561
11.13,291.922,0.664
11.16,293.256,0.745
11.2,294.659,0.687
11.23,295.712,0.481
11.26,296.414,0.252
11.29,296.765,0.103
11.33,296.906,0.046
11.36,297.046,0.115
11.39,297.537,0.344
11.42,298.309,0.504
11.46,299.187,0.447
11.49,299.924,0.298
11.52,300.415,0.195
11.55,300.906,0.355
11.59,301.292,0.355
11.62,301.328,-0.183
11.65,301.257,-0.046
11.68,302.065,0.768
11.72,301.924,0.596
11.75,301.573,0.0
11.78,301.117,-0.653
11.81,299.959,-0.63
11.85,298.59,-0.699
11.88,297.081,-0.882
11.91,296.028,-0.389
11.94,295.853,0.195
11.98,296.063,0.16
12.01,295.888,-0.229
12.04,295.151,-0.515
12.07,293.887,-0.745
12.11,292.238,-0.974
12.14,290.483,-0.916
12.17,289.114,-0.515
12.2,288.307,-0.263
12.24,287.711,-0.286
12.27,287.044,-0.389
12.3,286.061,-0.607
12.33,284.552,-0.905
12.37,282.727,-1.054
12.4,280.797,-0.905
12.43,279.323,-0.63
12.46,278.27,-0.458
12.5,277.428,-0.389
12.53,276.585,-0.447
12.56,275.427,-0.687
12.59,273.743,-0.985
12.63,271.742,-1.134
12.66,269.601,-1.111
12.69,267.531,-1.042
12.73,265.671,-0.928
12.76,264.021,-0.745
12.79,262.477,-0.756
12.82,260.757,-0.985
12.86,258.757,-1.1
12.89,256.757,-1.031
12.92,254.826,-0.916
12.95,252.931,-1.031
12.99,251.071,-0.928
13.02,249.387,-0.733
13.05,247.737,-0.905
13.08,245.491,-1.375
13.12,242.999,-1.363
13.15,240.858,-0.848
13.18,239.279,-0.699
13.21,237.91,-0.756
13.25,236.647,-0.584
13.28,235.629,-0.401
13.31,234.576,-0.63
13.34,232.997,-0.985
13.38,230.821,-1.226
13.41,228.259,-1.409
13.44,225.381,-1.581
13.47,222.363,-1.512
13.51,219.591,-1.306
13.54,217.274,-1.123
13.57,215.099,-1.088
13.6,212.958,-1.123
13.64,210.782,-1.123
13.67,208.676,-1.088
13.7,206.676,-0.997
13.73,204.886,-0.848
13.77,203.307,-0.756
13.8,201.727,-0.79
13.83,199.902,-1.054
13.86,197.516,-1.398
13.9,194.498,-1.673
13.93,191.164,-1.81
13.96,187.654,-1.81
13.99,184.425,-1.524
14.03,181.863,-1.214
14.06,179.512,-1.157
14.09,176.985,-1.363
14.12,174.213,-1.524
14.16,171.194,-1.604
14.19,168.001,-1.707
14.22,164.702,-1.673
14.25,161.508,-1.604
14.29,158.174,-1.821
14.32,155.016,-1.524
14.35,152.173,-1.317
14.38,149.751,-1.237
14.42,147.119,-1.386
14.45,144.347,-1.535
14.48,141.574,-1.306
14.52,138.977,-1.352
14.55,136.134,-1.512
14.58,133.046,-1.707
14.61,129.607,-1.833
14.65,125.851,-1.982
14.68,121.921,-2.096
14.71,117.85,-2.096
14.74,113.954,-1.959
14.78,110.374,-1.787
14.81,106.865,-1.753
14.84,103.426,-1.799
14.87,99.776,-1.89
14.91,95.985,-2.039
14.94,91.949,-2.108
14.97,87.843,-2.142
15.0,83.772,-2.085
15.04,79.877,-1.902
