Trigger_Date,2023/08/04
Trigger_Time,T 11:24:12.466 PDT
Samples_Per_Cycle,512
Microseconds_Per_Sample,32.562
Time (ms),Voltage (V),Current (A)
-16.67,2.457,2.039
-16.64,4.808,2.509
-16.61,6.984,2.99
-16.57,9.862,3.482
-16.54,13.547,4.032
-16.51,17.723,4.513
-16.48,21.513,4.937
-16.44,23.97,5.453
-16.41,25.198,6.278
-16.38,26.462,7.389
-16.35,28.497,8.523
-16.31,31.375,9.76
-16.28,34.85,11.078
-16.25,38.956,12.177
-16.22,43.378,12.991
-16.18,47.94,13.666
-16.15,52.608,14.193
-16.12,57.135,14.48
-16.09,61.382,14.686
-16.05,65.453,14.858
-16.02,69.383,15.007
-15.99,72.998,15.144
-15.96,76.297,15.259
-15.92,79.42,15.476
-15.89,82.579,15.82
-15.86,85.667,16.095
-15.83,88.686,16.485
-15.79,91.844,16.989
-15.76,95.038,17.458
-15.73,98.232,17.905
-15.69,101.425,18.375
-15.66,104.689,18.856
-15.63,108.093,19.406
-15.6,111.603,19.944
-15.56,115.007,20.483
-15.53,118.517,21.009
-15.5,121.921,21.41
-15.47,125.185,21.674
-15.43,128.308,22.086
-15.4,131.747,22.705
-15.37,135.117,23.049
-15.34,138.451,23.667
-15.3,141.96,24.194
-15.27,145.189,24.469
-15.24,147.961,24.572
-15.21,150.629,24.71
-15.17,153.542,25.053
-15.14,156.454,25.431
-15.11,159.192,25.832
-15.08,161.964,26.382
-15.04,165.088,26.966
-15.01,168.317,27.459
-14.98,171.23,27.745
-14.95,173.897,28.032
-14.91,176.669,28.272
-14.88,179.372,28.513
-14.85,182.074,28.879
-14.82,184.846,29.315
-14.78,187.584,29.658
-14.75,190.216,29.956
-14.72,192.673,30.174
-14.69,194.954,30.277
-14.65,197.025,30.392
-14.62,199.13,30.609
-14.59,201.306,30.987
-14.56,203.587,31.423
-14.52,205.939,31.743
-14.49,208.395,32.041
-14.46,210.571,32.19
-14.43,212.186,32.328
-14.39,214.081,32.511
-14.36,216.292,32.809
-14.33,218.538,33.221
-14.29,220.714,33.611
-14.26,222.784,33.977
-14.23,225.171,34.401
-14.2,227.417,34.573
-14.16,229.207,34.55
-14.13,231.032,34.722
-14.1,233.138,35.02
-14.07,235.313,35.352
-14.03,237.068,35.547
-14.0,238.788,35.81
-13.97,240.999,36.257
-13.94,243.105,36.417
-13.9,244.684,36.452
-13.87,246.053,36.417
-13.84,247.913,36.761
-13.81,250.124,37.173
-13.77,251.878,37.334
-13.74,253.317,37.448
-13.71,255.002,37.723
-13.68,256.757,37.769
-13.64,257.95,37.654
-13.61,259.108,37.826
-13.58,260.757,38.124
-13.55,262.231,38.273
-13.51,263.53,38.456
-13.48,264.828,38.594
-13.45,266.022,38.628
-13.42,267.18,38.628
-13.38,268.163,38.651
-13.35,269.25,38.811
-13.32,270.444,39.018
-13.29,271.602,39.224
-13.25,272.865,39.476
-13.22,274.023,39.682
-13.19,275.357,39.831
-13.16,276.515,39.911
-13.12,277.603,39.98
-13.09,278.656,40.037
-13.06,279.639,40.083
-13.02,280.656,40.198
-12.99,281.779,40.415
-12.96,282.832,40.553
-12.93,283.64,40.564
-12.89,284.306,40.495
-12.86,284.903,40.358
-12.83,285.254,40.163
-12.8,285.394,40.003
-12.76,285.64,40.003
-12.73,286.272,40.381
-12.7,286.658,40.266
-12.67,286.552,40.094
-12.63,286.798,40.289
-12.6,287.254,40.186
-12.57,287.325,40.117
-12.54,287.079,39.9
-12.5,286.903,39.865
-12.47,287.149,40.037
-12.44,287.325,40.106
-12.41,287.325,40.129
-12.37,287.325,40.129
-12.34,287.325,39.991
-12.31,287.149,39.774
-12.28,286.763,39.567
-12.24,286.447,39.556
-12.21,286.412,39.625
-12.18,286.201,39.59
-12.15,285.78,39.419
-12.11,285.114,39.121
-12.08,284.271,38.743
-12.05,283.289,38.376
-12.02,282.306,38.124
-11.98,281.393,38.101
-11.95,280.727,38.216
-11.92,280.095,38.216
-11.89,279.218,38.055
-11.85,278.165,37.769
-11.82,277.077,37.391
-11.79,275.813,37.036
-11.75,274.515,36.772
-11.72,273.251,36.646
-11.69,272.163,36.578
-11.66,271.04,36.486
-11.62,269.882,36.337
-11.59,268.584,36.085
-11.56,267.075,35.741
-11.53,265.565,35.398
-11.49,263.986,35.1
-11.46,262.477,34.894
-11.43,260.898,34.687
-11.4,259.283,34.504
-11.36,257.845,34.39
-11.33,256.441,34.195
-11.3,254.756,33.897
-11.27,253.072,33.622
-11.23,251.562,33.439
-11.2,249.983,33.164
-11.17,248.158,32.809
-11.14,246.439,32.648
-11.1,244.965,32.545
-11.07,243.315,32.305
-11.04,241.455,31.972
-11.01,239.665,31.732
-10.97,238.051,31.571
-10.94,236.472,31.342
-10.91,234.541,31.056
-10.88,232.751,30.873
-10.84,231.172,30.609
-10.81,229.277,30.174
-10.78,227.066,29.716
-10.75,224.925,29.383
-10.71,222.96,29.063
-10.68,220.819,28.776
-10.65,218.678,28.57
-10.62,216.783,28.433
-10.58,214.888,28.215
-10.55,212.712,27.78
-10.52,210.466,27.299
-10.49,208.29,26.943
-10.45,205.798,26.646
-10.42,203.482,26.382
-10.39,201.482,26.142
-10.35,199.516,25.924
-10.32,197.165,25.58
-10.29,194.603,25.019
-10.26,192.006,24.435
-10.22,189.304,23.873
-10.19,186.285,23.22
-10.16,183.092,22.751
-10.13,180.319,22.533
-10.09,177.582,22.201
-10.06,174.388,21.571
-10.03,171.054,21.055
-10.0,168.036,20.757
-9.96,165.088,20.219
-9.93,161.649,19.6
-9.9,158.49,19.429
-9.87,155.507,18.982
-9.83,152.383,18.558
-9.8,149.541,18.512
-9.77,146.803,18.088
-9.74,143.82,17.664
-9.7,140.486,16.943
-9.67,137.222,16.462
-9.64,134.134,16.015
-9.61,131.01,15.648
-9.57,127.817,15.259
-9.54,124.553,14.766
-9.51,121.114,14.205
-9.48,117.534,13.598
-9.44,114.024,13.025
-9.41,110.374,12.498
-9.38,106.83,12.131
-9.35,103.636,11.834
-9.31,100.407,11.501
-9.28,97.249,11.238
-9.25,94.231,10.894
-9.22,91.037,10.436
-9.18,87.878,9.978
-9.15,84.72,9.531
-9.12,81.561,9.13
-9.08,78.508,8.798
-9.05,75.525,8.466
-9.02,72.472,8.042
-8.99,69.313,7.595
-8.95,66.119,7.137
-8.92,62.891,6.656
-8.89,59.521,6.106
-8.86,56.082,5.567
-8.82,52.643,5.063
-8.79,49.168,4.571
-8.76,45.554,3.975
-8.73,41.833,3.379
-8.69,38.078,2.818
-8.66,34.393,2.268
-8.63,30.743,1.707
-8.6,27.058,1.18
-8.56,23.444,0.653
-8.53,19.829,0.218
-8.5,16.319,-0.195
-8.47,12.915,-0.63
-8.43,9.335,-0.997
-8.4,4.808,-1.455
-8.37,0.632,-1.718
-8.34,-2.211,-2.131
-8.3,-4.633,-2.463
-8.27,-6.738,-2.784
-8.24,-9.756,-3.425
-8.21,-13.898,-4.124
-8.17,-18.671,-4.559
-8.14,-22.672,-4.823
-8.11,-25.128,-5.338
-8.08,-26.146,-6.22
-8.04,-27.094,-7.366
-8.01,-28.883,-8.603
-7.98,-31.796,-9.852
-7.95,-35.516,-11.032
-7.91,-39.693,-12.017
-7.88,-43.939,-12.796
-7.85,-48.08,-13.403
-7.81,-52.432,-13.85
-7.78,-56.679,-14.159
-7.75,-60.785,-14.365
-7.72,-64.645,-14.56
-7.68,-68.365,-14.801
-7.65,-71.945,-15.018
-7.62,-75.314,-15.202
-7.59,-78.613,-15.522
-7.55,-81.877,-15.9
-7.52,-85.141,-16.29
-7.49,-88.44,-16.748
-7.46,-91.774,-17.275
-7.42,-95.213,-17.733
-7.39,-98.477,-18.146
-7.36,-101.741,-18.512
-7.33,-104.97,-18.867
-7.29,-108.058,-19.154
-7.26,-111.006,-19.474
-7.23,-114.095,-19.921
-7.2,-117.288,-20.448
-7.16,-120.412,-20.861
-7.13,-123.605,-21.456
-7.1,-127.185,-22.132
-7.07,-130.835,-22.751
-7.03,-134.59,-23.45
-7.0,-138.521,-24.194
-6.97,-142.732,-25.007
-6.94,-146.417,-25.133
-6.9,-149.049,-24.836
-6.87,-151.331,-24.721
-6.84,-154.7,-25.408
-6.81,-158.034,-25.741
-6.77,-160.385,-25.901
-6.74,-162.666,-26.336
-6.71,-165.895,-27.024
-6.68,-169.229,-27.47
-6.64,-171.791,-27.734
-6.61,-174.248,-28.066
-6.58,-177.02,-28.341
-6.54,-179.617,-28.478
-6.51,-182.179,-28.857
-6.48,-184.917,-29.338
-6.45,-187.584,-29.67
-6.41,-190.076,-29.933
-6.38,-192.462,-30.243
-6.35,-194.919,-30.483
-6.32,-197.27,-30.667
-6.28,-199.376,-30.861
-6.25,-201.552,-31.216
-6.22,-203.903,-31.617
-6.19,-206.43,-31.904
-6.15,-208.746,-32.053
-6.12,-210.606,-32.27
-6.09,-212.431,-32.465
-6.06,-214.362,-32.568
-6.02,-216.397,-32.832
-5.99,-218.503,-33.278
-5.96,-220.714,-33.702
-5.93,-222.995,-34.126
-5.89,-225.311,-34.481
-5.86,-227.522,-34.71
-5.83,-229.593,-34.779
-5.8,-231.488,-34.928
-5.76,-233.559,-35.226
-5.73,-235.594,-35.455
-5.7,-237.349,-35.512
-5.67,-239.104,-35.833
-5.63,-241.28,-36.211
-5.6,-243.14,-36.268
-5.57,-244.473,-36.268
-5.54,-246.053,-36.52
-5.5,-248.088,-36.795
-5.47,-249.773,-36.956
-5.44,-251.176,-37.139
-5.41,-252.615,-37.253
-5.37,-254.16,-37.379
-5.34,-255.669,-37.563
-5.31,-257.037,-37.666
-5.28,-258.301,-37.78
-5.24,-259.669,-37.998
-5.21,-261.179,-38.273
-5.18,-262.653,-38.491
-5.14,-264.056,-38.674
-5.11,-265.215,-38.697
-5.08,-266.302,-38.651
-5.05,-267.426,-38.708
-5.01,-268.619,-38.892
-4.98,-269.777,-39.063
-4.95,-270.9,-39.35
-4.92,-272.304,-39.625
-4.88,-273.602,-39.785
-4.85,-274.796,-39.911
-4.82,-275.919,-39.991
-4.79,-277.077,-40.094
-4.75,-278.165,-40.152
-4.72,-279.147,-40.163
-4.69,-280.165,-40.346
-4.66,-281.288,-40.507
-4.62,-282.306,-40.587
-4.59,-283.043,-40.587
-4.56,-283.78,-40.518
-4.53,-284.377,-40.404
-4.49,-284.763,-40.266
-4.46,-284.938,-40.06
-4.43,-285.184,-40.117
-4.4,-285.535,-40.117
-4.36,-286.061,-40.495
-4.33,-286.623,-40.53
-4.3,-286.728,-40.392
-4.27,-287.219,-40.747
-4.23,-287.64,-40.369
-4.2,-287.149,-39.9
-4.17,-287.044,-39.991
-4.14,-287.57,-40.278
-4.1,-287.711,-40.186
-4.07,-287.219,-40.003
-4.04,-286.833,-39.842
-4.01,-286.693,-39.636
-3.97,-286.131,-39.315
-3.94,-285.394,-39.155
-3.91,-284.973,-39.315
-3.87,-285.114,-39.533
-3.84,-285.078,-39.659
-3.81,-284.798,-39.671
-3.78,-284.447,-39.441
-3.74,-283.885,-39.041
-3.71,-283.043,-38.64
-3.68,-282.095,-38.342
-3.65,-281.218,-38.273
-3.61,-280.656,-38.365
-3.58,-280.025,-38.353
-3.55,-279.182,-38.204
-3.52,-278.13,-37.895
-3.48,-276.971,-37.494
-3.45,-275.673,-37.07
-3.42,-274.199,-36.784
-3.39,-273.076,-36.749
-3.35,-272.058,-36.784
-3.32,-271.005,-36.738
-3.29,-269.882,-36.623
-3.26,-268.689,-36.36
-3.22,-267.25,-35.925
-3.19,-265.671,-35.547
-3.16,-264.197,-35.272
-3.13,-262.617,-35.031
-3.09,-261.003,-34.802
-3.06,-259.389,-34.653
-3.03,-257.95,-34.504
-3.0,-256.335,-34.172
-2.96,-254.44,-33.748
-2.93,-252.615,-33.542
-2.9,-251.036,-33.37
-2.87,-249.422,-33.198
-2.83,-247.772,-33.038
-2.8,-246.193,-32.877
-2.77,-244.789,-32.74
-2.74,-243.14,-32.431
-2.7,-241.28,-32.018
-2.67,-239.455,-31.743
-2.64,-237.84,-31.56
-2.6,-236.156,-31.308
-2.57,-234.19,-30.976
-2.54,-232.33,-30.781
-2.51,-230.576,-30.495
-2.47,-228.54,-30.036
-2.44,-226.329,-29.635
-2.41,-224.118,-29.292
-2.38,-222.153,-29.063
-2.34,-220.117,-28.822
-2.31,-217.976,-28.524
-2.28,-216.046,-28.456
-2.25,-214.502,-28.456
-2.21,-212.537,-28.02
-2.18,-210.22,-27.47
-2.15,-208.044,-27.138
-2.12,-205.798,-26.852
-2.08,-203.622,-26.497
-2.05,-201.517,-26.21
-2.02,-199.341,-25.947
-1.99,-196.884,-25.477
-1.95,-194.182,-24.904
-1.92,-191.339,-24.32
-1.89,-188.496,-23.747
-1.86,-185.338,-23.083
-1.82,-182.179,-22.682
-1.79,-179.372,-22.499
-1.76,-176.599,-22.132
-1.73,-173.511,-21.628
-1.69,-170.317,-21.181
-1.66,-167.299,-20.792
-1.63,-164.386,-20.357
-1.6,-161.157,-19.784
-1.56,-158.034,-19.486
-1.53,-155.507,-19.543
-1.5,-152.769,-18.947
-1.47,-149.4,-18.363
-1.43,-146.101,-17.768
-1.4,-142.978,-17.241
-1.37,-139.819,-16.794
-1.34,-136.591,-16.37
-1.3,-133.362,-15.992
-1.27,-130.273,-15.74
-1.24,-127.361,-15.442
-1.2,-124.342,-15.041
-1.17,-121.219,-14.549
-1.14,-117.955,-13.941
-1.11,-114.516,-13.323
-1.07,-111.076,-12.796
-1.04,-107.742,-12.372
-1.01,-104.549,-12.028
-0.98,-101.215,-11.627
-0.94,-97.951,-11.284
-0.91,-94.757,-10.86
-0.88,-91.458,-10.321
-0.85,-88.019,-9.794
-0.81,-84.685,-9.371
-0.78,-81.491,-9.004
-0.75,-78.333,-8.649
-0.72,-75.174,-8.34
-0.68,-72.121,-8.03
-0.65,-69.032,-7.538
-0.62,-65.628,-6.942
-0.59,-62.119,-6.381
-0.55,-58.574,-5.842
-0.52,-55.135,-5.361
-0.49,-51.625,-4.88
-0.46,-48.116,-4.376
-0.42,-44.606,-3.941
-0.39,-41.026,-3.379
-0.36,-37.271,-2.749
-0.33,-33.481,-2.222
-0.29,-29.936,-1.718
-0.26,-26.357,-1.203
-0.23,-22.742,-0.699
-0.2,-19.127,-0.229
-0.16,-15.652,0.137
-0.13,-12.354,0.493
-0.1,-8.844,0.848
-0.07,-4.808,1.123
-0.03,-0.842,1.386
0.0,1.825,1.936
0.03,4.387,2.52
0.07,6.773,3.116
0.1,10.143,3.803
0.13,14.494,4.445
0.16,19.232,4.88
0.2,22.777,4.926
0.23,24.461,5.384
0.26,25.374,6.369
0.29,26.672,7.469
0.33,28.743,8.58
0.36,31.586,9.852
0.39,35.025,11.158
0.42,39.131,12.212
0.46,43.623,12.991
0.49,48.116,13.666
0.52,52.783,14.205
0.55,57.31,14.549
0.59,61.592,14.778
0.62,65.593,14.881
0.65,69.313,14.915
0.68,72.647,14.961
0.72,75.771,15.075
0.75,78.859,15.247
0.78,81.842,15.625
0.81,84.86,16.061
0.85,87.984,16.553
0.88,91.177,17.057
0.91,94.336,17.516
0.94,97.565,17.962
0.98,100.934,18.489
1.01,104.373,19.028
1.04,107.918,19.658
1.07,111.533,20.162
1.11,115.007,20.643
1.14,118.587,21.227
1.17,122.166,21.617
1.2,125.395,21.8
1.24,128.519,22.201
1.27,131.958,22.808
1.3,135.362,23.14
1.34,138.626,23.736
1.37,141.96,24.194
1.4,145.084,24.458
1.43,147.821,24.526
1.47,150.348,24.664
1.5,153.12,25.053
1.53,155.998,25.466
1.56,158.806,25.89
1.6,161.578,26.462
1.63,164.772,27.092
1.66,168.001,27.585
1.69,170.949,27.906
1.73,173.792,28.204
1.76,176.564,28.398
1.79,179.231,28.616
1.82,181.969,29.005
1.86,184.706,29.406
1.89,187.408,29.739
1.92,189.97,30.082
1.95,192.427,30.323
1.99,194.814,30.472
2.02,196.919,30.609
2.05,199.13,30.838
2.08,201.236,31.193
2.12,203.412,31.526
2.15,205.763,31.789
2.18,208.15,32.11
2.21,210.255,32.328
2.25,212.01,32.454
2.28,213.87,32.637
2.31,216.011,32.981
2.34,218.292,33.416
2.38,220.398,33.782
2.41,222.504,34.138
2.44,224.82,34.573
2.47,227.206,34.79
2.51,229.031,34.768
2.54,230.821,34.962
2.57,233.032,35.26
2.6,235.173,35.524
2.64,236.928,35.718
2.67,238.753,36.039
2.7,240.753,36.257
2.74,242.683,36.383
2.77,244.438,36.646
2.8,246.263,36.898
2.83,248.228,37.196
2.87,250.194,37.448
2.9,251.808,37.483
2.93,253.282,37.586
2.96,255.037,37.883
3.0,256.721,37.929
3.03,257.739,37.815
3.06,259.003,37.987
3.09,260.687,38.307
3.13,262.161,38.399
3.16,263.284,38.582
3.19,264.583,38.754
3.22,265.811,38.777
3.26,266.899,38.743
3.29,267.776,38.811
3.32,268.9,38.972
3.35,270.058,39.167
3.39,271.286,39.419
3.42,272.479,39.716
3.45,273.848,39.934
3.48,275.146,40.106
3.52,276.375,40.198
3.55,277.463,40.232
3.58,278.516,40.301
3.61,279.604,40.358
3.65,280.551,40.415
3.68,281.569,40.598
3.71,282.657,40.713
3.74,283.534,40.724
3.78,284.166,40.69
3.81,284.692,40.61
3.84,285.114,40.438
3.87,285.254,40.278
3.91,285.535,40.289
3.94,286.272,40.702
3.97,286.763,40.61
4.01,286.623,40.404
4.04,286.868,40.61
4.07,287.395,40.495
4.1,287.5,40.415
4.14,287.149,40.198
4.17,287.044,40.129
4.2,287.325,40.278
4.23,287.465,40.346
4.27,287.43,40.312
4.3,287.325,40.243
4.33,287.219,40.049
4.36,286.833,39.819
4.4,286.342,39.59
4.43,285.956,39.636
4.46,285.921,39.808
4.49,285.78,39.842
4.53,285.359,39.705
4.56,284.763,39.43
4.59,284.096,39.086
4.62,283.359,38.754
4.66,282.341,38.422
4.69,281.393,38.307
4.72,280.692,38.365
4.75,279.955,38.342
4.79,279.147,38.193
4.82,278.024,37.952
4.85,276.866,37.643
4.88,275.708,37.288
4.92,274.339,36.979
4.95,273.111,36.864
4.98,272.128,36.83
5.01,270.97,36.726
5.05,269.672,36.566
5.08,268.408,36.303
5.11,266.969,35.902
5.14,265.355,35.512
5.18,263.741,35.226
5.21,262.196,35.02
5.24,260.652,34.825
5.28,259.038,34.664
5.31,257.529,34.561
5.34,256.055,34.378
5.37,254.475,34.08
5.41,252.721,33.817
5.44,251.212,33.656
5.47,249.773,33.485
5.5,248.228,33.324
5.54,246.895,33.29
5.57,245.456,32.958
5.6,243.456,32.419
5.63,241.42,31.972
5.67,239.665,31.743
5.7,237.981,31.526
5.73,236.086,31.262
5.76,233.98,30.987
5.8,231.944,30.655
5.83,230.19,30.54
5.86,228.54,30.46
5.89,226.68,30.105
5.93,224.609,29.75
5.96,222.714,29.59
5.99,221.1,29.361
6.02,219.17,29.005
6.06,217.169,28.742
6.09,215.239,28.444
6.12,213.098,27.952
6.15,210.782,27.436
6.19,208.501,27.024
6.22,205.869,26.68
6.25,203.412,26.382
6.28,201.306,26.13
6.32,199.236,25.912
6.35,196.779,25.603
6.38,194.217,25.099
6.41,191.62,24.595
6.45,188.918,24.102
6.48,186.075,23.53
6.51,183.127,23.083
6.54,180.389,22.819
6.58,177.722,22.453
6.61,174.704,21.926
6.64,171.545,21.307
6.68,168.387,20.838
6.71,165.228,20.311
6.74,161.894,19.726
6.77,158.595,19.406
6.81,155.472,19.028
6.84,152.489,18.833
6.87,149.576,18.535
6.9,146.312,17.939
6.94,142.978,17.344
6.97,139.714,16.931
7.0,136.661,16.507
7.03,133.467,16.038
7.07,130.133,15.66
7.1,127.045,15.328
7.13,124.062,14.949
7.16,120.973,14.537
7.2,117.709,14.01
7.23,114.34,13.472
7.26,111.006,12.945
7.29,107.777,12.544
7.33,104.654,12.235
7.36,101.46,11.879
7.39,98.337,11.49
7.42,95.143,11.032
7.46,91.914,10.516
7.49,88.58,10.024
7.52,85.211,9.474
7.55,81.842,9.05
7.59,78.648,8.706
7.62,75.56,8.363
7.65,72.366,7.985
7.68,69.138,7.549
7.72,65.874,7.08
7.75,62.575,6.598
7.78,59.276,6.094
7.81,55.801,5.59
7.85,52.432,5.132
7.88,48.993,4.662
7.91,45.483,4.101
7.95,41.798,3.528
7.98,38.113,2.978
8.01,34.464,2.406
8.04,30.849,1.799
8.08,27.094,1.226
8.11,23.479,0.664
8.14,19.864,0.195
8.17,16.319,-0.298
8.21,12.88,-0.756
8.24,9.3,-1.054
8.27,4.808,-1.466
8.3,0.597,-1.764
8.34,-2.316,-2.177
8.37,-4.738,-2.486
8.4,-6.914,-2.818
8.43,-10.002,-3.54
8.47,-14.249,-4.181
8.5,-18.846,-4.502
8.53,-22.531,-4.766
8.56,-24.883,-5.396
8.6,-26.006,-6.312
8.63,-27.023,-7.412
8.66,-28.989,-8.637
8.69,-32.112,-9.886
8.73,-35.551,-11.066
8.76,-39.307,-12.12
8.79,-43.553,-12.91
8.82,-48.01,-13.506
8.86,-52.502,-13.987
8.89,-56.749,-14.319
8.92,-60.82,-14.491
8.95,-64.716,-14.663
8.99,-68.401,-14.846
9.02,-71.875,-15.007
9.05,-75.174,-15.202
9.08,-78.403,-15.511
9.12,-81.667,-15.889
9.15,-84.895,-16.313
9.18,-88.264,-16.794
9.22,-91.634,-17.275
9.25,-94.897,-17.699
9.28,-98.126,-18.134
9.31,-101.46,-18.558
9.35,-104.724,-18.993
9.38,-108.023,-19.417
9.41,-111.322,-19.898
9.44,-114.726,-20.402
9.48,-118.095,-20.906
9.51,-121.359,-21.284
9.54,-124.693,-21.777
9.57,-128.168,-22.327
9.61,-131.642,-22.808
9.64,-135.117,-23.404
9.67,-138.837,-24.068
9.7,-142.732,-24.767
9.74,-145.996,-24.87
9.77,-148.277,-24.595
9.8,-150.594,-24.572
9.83,-153.857,-25.34
9.87,-157.086,-25.683
9.9,-159.332,-25.855
9.93,-161.754,-26.462
9.96,-165.404,-27.402
10.0,-169.334,-28.146
10.03,-172.984,-28.983
10.06,-176.704,-29.773
10.09,-180.67,-30.266
10.13,-184.25,-30.518
10.16,-187.689,-30.793
10.19,-190.953,-30.964
10.22,-193.831,-30.987
10.26,-196.533,-31.159
10.29,-199.376,-31.583
10.32,-201.868,-31.64
10.35,-203.622,-31.491
10.39,-205.658,-31.594
10.42,-208.009,-31.778
10.45,-209.694,-31.858
10.49,-210.957,-31.961
10.52,-212.466,-32.11
10.55,-214.081,-32.213
10.58,-215.485,-32.247
10.62,-216.748,-32.431
10.65,-218.433,-32.958
10.68,-220.538,-33.45
10.71,-222.469,-33.805
10.75,-224.434,-34.275
10.78,-226.785,-34.802
10.81,-229.277,-35.146
10.84,-231.418,-35.306
10.88,-233.313,-35.524
10.91,-235.454,-35.81
10.94,-237.875,-36.142
10.97,-240.157,-36.44
11.01,-242.157,-36.681
11.04,-244.052,-36.784
11.07,-245.702,-36.623
11.1,-246.93,-36.406
11.14,-248.088,-36.348
11.17,-249.352,-36.566
11.2,-250.685,-36.795
11.23,-251.878,-37.013
11.27,-253.458,-37.54
11.3,-255.318,-38.01
11.33,-256.932,-38.158
11.36,-257.985,-37.987
11.4,-259.178,-38.032
11.43,-261.179,-38.628
11.46,-263.284,-39.041
11.49,-264.513,-39.052
11.53,-265.53,-39.098
11.56,-267.039,-39.121
11.59,-268.303,-38.983
11.62,-269.145,-39.018
11.66,-270.233,-39.212
11.69,-271.426,-39.476
11.72,-272.655,-39.682
11.75,-273.883,-39.911
11.79,-275.111,-40.152
11.82,-276.34,-40.266
11.85,-277.428,-40.266
11.89,-278.34,-40.266
11.92,-279.323,-40.266
11.95,-280.305,-40.392
11.98,-281.358,-40.564
12.02,-282.552,-40.873
12.05,-283.675,-40.999
12.08,-284.412,-40.919
12.11,-284.833,-40.621
12.15,-285.289,-40.587
12.18,-283.815,-38.605
12.21,-276.024,-32.717
12.24,-265.706,-28.685
12.28,-261.003,-29.475
12.31,-259.599,-30.712
12.34,-254.967,-30.873
12.37,-250.299,-32.488
12.41,-251.071,-35.466
12.44,-255.072,-38.032
12.47,-258.441,-40.163
12.5,-262.617,-42.718
12.54,-269.25,-44.86
12.57,-276.024,-45.857
12.6,-281.534,-46.315
12.63,-285.851,-45.524
12.67,-288.623,-43.943
12.7,-290.659,-42.844
12.73,-292.238,-42.145
12.76,-293.045,-41.618
12.8,-292.834,-41.034
12.83,-291.922,-40.163
12.86,-290.553,-39.315
12.89,-288.834,-38.514
12.93,-286.693,-37.757
12.96,-284.341,-37.265
12.99,-282.341,-37.208
13.02,-280.902,-37.494
13.06,-279.884,-37.883
13.09,-279.042,-38.181
13.12,-278.375,-38.422
13.16,-277.708,-38.376
13.19,-276.936,-38.055
13.22,-275.848,-37.712
13.25,-274.936,-37.528
13.29,-274.234,-37.505
13.32,-273.427,-37.437
13.35,-272.409,-37.288
13.38,-271.461,-37.173
13.42,-270.444,-36.818
13.45,-268.935,-36.234
13.48,-267.215,-35.776
13.51,-265.811,-35.547
13.55,-264.337,-35.306
13.58,-262.547,-35.008
13.61,-260.757,-34.836
13.64,-259.354,-34.756
13.68,-257.809,-34.424
13.71,-255.809,-33.966
13.74,-253.879,-33.714
13.77,-252.335,-33.645
13.81,-250.896,-33.53
13.84,-249.246,-33.381
13.87,-247.772,-33.324
13.9,-246.579,-33.301
