Trigger_Date,2023/07/31
Trigger_Time,T 22:48:36.496 PDT
Samples_Per_Cycle,512
Microseconds_Per_Sample,32.538
Time (ms),Voltage (V),Current (A)
-16.66,-11.511,-0.16
-16.63,-16.074,-0.493
-16.59,-20.425,-0.836
-16.56,-24.567,-1.26
-16.53,-28.708,-1.821
-16.5,-33.025,-2.337
-16.46,-37.447,-2.772
-16.43,-41.939,-3.093
-16.4,-46.326,-3.379
-16.37,-50.677,-3.608
-16.33,-54.854,-3.769
-16.3,-58.995,-3.918
-16.27,-62.996,-4.055
-16.24,-66.927,-4.204
-16.2,-70.682,-4.376
-16.17,-74.297,-4.582
-16.14,-77.876,-4.846
-16.11,-81.526,-5.109
-16.07,-85.281,-5.338
-16.04,-88.931,-5.556
-16.01,-92.581,-5.819
-15.98,-96.301,-6.06
-15.94,-100.056,-6.266
-15.91,-103.601,-6.484
-15.88,-106.97,-6.736
-15.85,-110.55,-6.988
-15.81,-114.235,-7.228
-15.78,-117.78,-7.412
-15.75,-121.5,-7.629
-15.72,-125.044,-7.859
-15.68,-128.87,-8.099
-15.65,-132.484,-8.271
-15.62,-136.099,-8.489
-15.59,-138.345,-8.5
-15.55,-141.995,-9.13
-15.52,-146.838,-9.13
-15.49,-150.383,-9.359
-15.46,-155.016,-9.84
-15.42,-159.473,-9.932
-15.39,-163.017,-10.115
-15.36,-166.281,-10.425
-15.33,-170.107,-10.619
-15.29,-173.37,-10.734
-15.26,-176.494,-10.94
-15.23,-179.828,-11.181
-15.2,-183.408,-11.33
-15.16,-186.531,-11.478
-15.13,-189.97,-11.73
-15.1,-192.813,-11.753
-15.07,-196.112,-12.2
-15.03,-199.902,-12.257
-15.0,-202.534,-12.475
-14.97,-206.009,-12.842
-14.94,-209.483,-12.968
-14.9,-212.186,-13.048
-14.87,-213.098,-13.002
-14.84,-216.292,-13.724
-14.8,-222.469,-13.884
-14.77,-225.838,-13.758
-14.74,-227.663,-14.159
-14.71,-230.225,-14.491
-14.67,-232.751,-14.537
-14.64,-234.682,-14.526
-14.61,-236.752,-14.514
-14.58,-238.928,-14.594
-14.54,-241.245,-14.846
-14.51,-243.842,-15.144
-14.48,-246.649,-15.431
-14.45,-249.492,-15.694
-14.41,-252.405,-15.866
-14.38,-255.212,-16.026
-14.35,-257.774,-16.164
-14.32,-260.196,-16.278
-14.28,-262.477,-16.404
-14.25,-264.583,-16.542
-14.22,-266.618,-16.599
-14.19,-268.513,-16.714
-14.15,-270.444,-16.851
-14.12,-272.479,-16.977
-14.09,-274.445,-17.092
-14.06,-276.375,-17.241
-14.02,-278.375,-17.47
-13.99,-280.551,-17.607
-13.96,-282.622,-17.733
-13.93,-284.517,-17.859
-13.89,-286.377,-18.031
-13.86,-288.167,-18.146
-13.83,-289.992,-18.26
-13.8,-291.711,-18.295
-13.76,-293.431,-18.409
-13.73,-294.975,-18.489
-13.7,-296.519,-18.695
-13.67,-297.853,-18.684
-13.63,-298.976,-18.856
-13.6,-300.906,-18.947
-13.57,-301.854,-18.947
-13.54,-303.152,-19.131
-13.5,-304.416,-19.108
-13.47,-305.539,-19.268
-13.44,-306.732,-19.36
-13.41,-308.031,-19.474
-13.37,-309.189,-19.497
-13.34,-310.312,-19.6
-13.31,-311.365,-19.646
-13.28,-312.312,-19.704
-13.24,-313.19,-19.704
-13.21,-313.857,-19.818
-13.18,-314.594,-19.875
-13.15,-315.295,-19.921
-13.11,-315.962,-19.967
-13.08,-316.629,-20.013
-13.05,-317.296,-19.99
-13.02,-317.963,-19.978
-12.98,-318.524,-20.001
-12.95,-319.191,-20.07
-12.92,-319.647,-20.082
-12.89,-320.139,-20.208
-12.85,-320.735,-20.196
-12.82,-321.051,-20.288
-12.79,-321.613,-20.368
-12.76,-322.244,-20.322
-12.72,-322.665,-20.311
-12.69,-323.016,-20.379
-12.66,-323.473,-20.414
-12.62,-323.929,-20.402
-12.59,-324.245,-20.46
-12.56,-324.631,-20.471
-12.53,-325.017,-20.414
-12.49,-325.438,-20.345
-12.46,-325.684,-20.357
-12.43,-325.929,-20.402
-12.4,-326.175,-20.437
-12.36,-326.456,-20.448
-12.33,-326.701,-20.448
-12.3,-326.982,-20.391
-12.27,-327.228,-20.345
-12.23,-327.403,-20.276
-12.2,-327.614,-20.253
-12.17,-327.789,-20.15
-12.14,-327.789,-20.162
-12.1,-327.965,-20.208
-12.07,-328.07,-20.173
-12.04,-328.21,-20.185
-12.01,-328.386,-20.104
-11.97,-328.561,-19.967
-11.94,-328.561,-19.887
-11.91,-328.596,-19.864
-11.88,-328.667,-19.749
-11.84,-328.667,-19.726
-11.81,-328.702,-19.658
-11.78,-328.667,-19.635
-11.75,-328.667,-19.623
-11.71,-328.667,-19.578
-11.68,-328.632,-19.578
-11.65,-328.702,-19.44
-11.62,-328.596,-19.348
-11.58,-328.596,-19.268
-11.55,-328.491,-19.108
-11.52,-328.316,-19.096
-11.49,-328.175,-18.959
-11.45,-327.93,-18.833
-11.42,-327.649,-18.695
-11.39,-327.193,-18.592
-11.36,-326.666,-18.432
-11.32,-325.859,-18.317
-11.29,-324.982,-18.203
-11.26,-323.578,-18.008
-11.23,-321.893,-17.859
-11.19,-320.174,-17.642
-11.16,-318.103,-17.424
-11.13,-316.032,-17.252
-11.1,-314.172,-17.092
-11.06,-312.032,-16.931
-11.03,-309.645,-16.828
-11.0,-307.294,-16.679
-10.97,-304.767,-16.496
-10.93,-302.065,-16.359
-10.9,-299.467,-16.175
-10.87,-296.555,-15.969
-10.84,-293.571,-15.774
-10.8,-290.343,-15.614
-10.77,-287.114,-15.442
-10.74,-283.92,-15.282
-10.71,-280.551,-15.156
-10.67,-277.287,-15.018
-10.64,-274.059,-14.892
-10.61,-271.04,-14.732
-10.57,-268.198,-14.56
-10.54,-265.25,-14.377
-10.51,-262.196,-14.251
-10.48,-259.283,-14.102
-10.44,-256.125,-13.907
-10.41,-252.966,-13.747
-10.38,-249.738,-13.563
-10.35,-246.544,-13.357
-10.31,-243.35,-13.117
-10.28,-240.051,-12.945
-10.25,-236.823,-12.773
-10.22,-233.629,-12.555
-10.18,-230.33,-12.372
-10.15,-226.996,-12.2
-10.12,-223.732,-11.994
-10.09,-220.398,-11.765
-10.05,-217.029,-11.559
-10.02,-213.625,-11.387
-9.99,-210.185,-11.192
-9.96,-206.641,-11.009
-9.92,-203.061,-10.803
-9.89,-199.516,-10.608
-9.86,-195.831,-10.367
-9.83,-192.181,-10.127
-9.79,-188.286,-9.898
-9.76,-184.496,-9.657
-9.73,-180.6,-9.382
-9.7,-176.459,-9.164
-9.66,-172.423,-8.935
-9.63,-168.176,-8.752
-9.6,-164.0,-8.523
-9.57,-159.789,-8.271
-9.53,-155.507,-8.019
-9.5,-151.12,-7.778
-9.47,-146.873,-7.526
-9.44,-142.451,-7.309
-9.4,-137.994,-7.114
-9.37,-133.502,-6.908
-9.34,-128.905,-6.701
-9.31,-124.448,-6.495
-9.27,-119.991,-6.255
-9.24,-115.498,-5.991
-9.21,-111.006,-5.739
-9.18,-106.444,-5.533
-9.14,-101.846,-5.327
-9.11,-97.284,-5.132
-9.08,-92.757,-4.926
-9.05,-88.264,-4.685
-9.01,-83.772,-4.433
-8.98,-79.28,-4.17
-8.95,-74.753,-3.941
-8.92,-70.261,-3.723
-8.88,-65.733,-3.46
-8.85,-61.136,-3.253
-8.82,-56.573,-2.99
-8.79,-51.976,-2.761
-8.75,-47.308,-2.543
-8.72,-42.676,-2.348
-8.69,-38.043,-2.085
-8.66,-33.376,-1.925
-8.62,-28.918,-1.684
-8.59,-24.356,-1.455
-8.56,-19.794,-1.203
-8.53,-15.407,-0.985
-8.49,-10.844,-0.745
-8.46,-6.458,-0.584
-8.43,-2.036,-0.298
-8.39,2.492,-0.16
-8.36,7.124,0.046
-8.33,11.581,0.137
-8.3,16.214,0.584
-8.26,20.18,0.63
-8.23,23.83,1.398
-8.2,30.042,1.982
-8.17,32.814,1.959
-8.13,36.71,3.059
-8.1,42.535,3.185
-8.07,46.606,3.265
-8.04,50.537,3.54
-8.0,55.135,3.723
-7.97,59.03,3.769
-7.94,62.891,4.021
-7.91,66.962,4.158
-7.87,70.576,4.342
-7.84,74.121,4.605
-7.81,77.946,4.834
-7.78,81.631,4.972
-7.74,85.281,5.212
-7.71,89.072,5.464
-7.68,92.722,5.739
-7.65,96.336,6.037
-7.61,100.056,6.278
-7.58,103.636,6.495
-7.55,107.181,6.736
-7.52,110.831,6.942
-7.48,114.375,7.137
-7.45,117.885,7.412
-7.42,121.605,7.664
-7.39,125.325,7.87
-7.35,128.975,8.111
-7.32,132.695,8.385
-7.29,136.38,8.534
-7.26,139.328,8.637
-7.22,142.381,8.89
-7.19,146.452,9.199
-7.16,150.945,9.439
-7.13,155.367,9.714
-7.09,159.578,9.955
-7.06,163.228,10.184
-7.03,166.808,10.39
-7.0,170.387,10.573
-6.96,173.862,10.699
-6.93,177.055,10.906
-6.9,180.354,11.1
-6.87,183.618,11.318
-6.83,187.022,11.513
-6.8,189.619,11.696
-6.77,193.796,12.154
-6.74,197.165,11.994
-6.7,199.762,12.361
-6.67,203.482,12.555
-6.64,206.711,12.693
-6.61,209.694,12.887
-6.57,212.747,13.071
-6.54,214.046,12.899
-6.51,216.011,13.552
-6.48,222.153,13.987
-6.44,226.259,13.77
-6.41,228.329,14.033
-6.38,230.997,14.274
-6.34,233.383,14.331
-6.31,235.103,14.457
-6.28,237.103,14.652
-6.25,239.279,14.801
-6.21,241.841,14.961
-6.18,244.403,15.156
-6.15,247.211,15.396
-6.12,250.299,15.614
-6.08,253.036,15.774
-6.05,255.493,15.992
-6.02,258.09,16.187
-5.99,260.406,16.278
-5.95,262.617,16.416
-5.92,264.723,16.542
-5.89,266.829,16.691
-5.86,268.864,16.828
-5.82,270.795,16.977
-5.79,272.76,17.103
-5.76,274.69,17.252
-5.73,276.62,17.458
-5.69,278.831,17.561
-5.66,280.902,17.664
-5.63,282.938,17.813
-5.6,284.903,17.928
-5.56,286.728,18.077
-5.53,288.553,18.191
-5.5,290.273,18.295
-5.47,291.887,18.409
-5.43,293.642,18.501
-5.4,295.186,18.581
-5.37,296.765,18.65
-5.34,298.134,18.787
-5.3,299.573,18.902
-5.27,300.801,19.062
-5.24,302.31,19.096
-5.21,302.451,19.085
-5.17,304.767,19.474
-5.14,306.1,19.096
-5.11,306.908,19.429
-5.08,308.627,19.303
-5.04,309.224,19.509
-5.01,310.698,19.555
-4.98,311.33,19.658
-4.95,312.453,19.83
-4.91,313.26,19.852
-4.88,314.032,19.956
-4.85,314.874,19.956
-4.82,315.506,19.978
-4.78,316.032,20.036
-4.75,316.805,20.059
-4.72,317.401,20.082
-4.69,317.998,20.127
-4.65,318.629,20.173
-4.62,319.261,20.15
-4.59,319.753,20.15
-4.56,320.209,20.219
-4.52,320.735,20.253
-4.49,321.156,20.322
-4.46,321.718,20.345
-4.43,322.209,20.379
-4.39,322.63,20.46
-4.36,323.087,20.46
-4.33,323.543,20.46
-4.3,324.069,20.437
-4.26,324.35,20.425
-4.23,324.666,20.46
-4.2,325.052,20.448
-4.16,325.368,20.471
-4.13,325.684,20.483
-4.1,326.035,20.483
-4.07,326.315,20.402
-4.03,326.631,20.402
-4.0,327.052,20.253
-3.97,326.947,20.322
-3.94,327.403,20.379
-3.9,327.193,20.322
-3.87,327.614,20.471
-3.84,327.859,20.322
-3.81,328.0,20.276
-3.77,328.21,20.15
-3.74,328.281,20.127
-3.71,328.456,20.082
-3.68,328.491,20.059
-3.64,328.632,20.07
-3.61,328.702,19.99
-3.58,328.737,19.956
-3.55,328.947,19.852
-3.51,329.018,19.623
-3.48,328.912,19.589
-3.45,328.912,19.543
-3.42,328.912,19.532
-3.38,328.912,19.474
-3.35,328.877,19.44
-3.32,328.912,19.383
-3.29,328.737,19.348
-3.25,328.842,19.211
-3.22,328.632,19.073
-3.19,328.491,19.051
-3.16,328.246,18.947
-3.12,327.965,18.959
-3.09,327.719,18.844
-3.06,327.368,18.695
-3.03,326.807,18.535
-2.99,326.035,18.386
-2.96,325.122,18.168
-2.93,323.648,17.974
-2.9,322.069,17.859
-2.86,320.314,17.664
-2.83,318.279,17.493
-2.8,316.208,17.367
-2.77,314.313,17.195
-2.73,312.172,16.989
-2.7,309.785,16.84
-2.67,307.504,16.656
-2.64,304.942,16.462
-2.6,302.17,16.359
-2.57,299.432,16.198
-2.54,296.484,15.992
-2.51,293.361,15.889
-2.47,290.308,15.706
-2.44,287.184,15.476
-2.41,283.955,15.27
-2.38,280.621,15.144
-2.34,277.287,15.041
-2.31,274.234,14.881
-2.28,271.04,14.766
-2.25,268.092,14.675
-2.21,265.179,14.537
-2.18,262.231,14.342
-2.15,259.283,14.148
-2.11,256.195,13.918
-2.08,253.036,13.724
-2.05,249.843,13.54
-2.02,246.579,13.38
-1.98,243.315,13.208
-1.95,240.016,13.071
-1.92,236.787,12.899
-1.89,233.629,12.681
-1.85,230.295,12.475
-1.82,227.031,12.303
-1.79,223.872,12.074
-1.76,220.573,11.845
-1.72,217.169,11.662
-1.69,213.765,11.467
-1.66,210.291,11.261
-1.63,206.816,11.032
-1.59,203.166,10.814
-1.56,199.551,10.585
-1.53,195.866,10.344
-1.5,192.111,10.115
-1.46,188.286,9.875
-1.43,184.425,9.657
-1.4,180.495,9.428
-1.37,176.494,9.187
-1.33,172.458,8.924
-1.3,168.282,8.683
-1.27,164.105,8.466
-1.24,159.859,8.248
-1.2,155.507,8.042
-1.17,151.19,7.801
-1.14,146.838,7.606
-1.11,142.592,7.343
-1.07,138.135,7.102
-1.04,133.537,6.908
-1.01,129.115,6.667
-0.98,124.553,6.438
-0.94,119.955,6.22
-0.91,115.393,5.991
-0.88,110.831,5.762
-0.85,106.233,5.556
-0.81,101.741,5.315
-0.78,97.179,5.029
-0.75,92.722,4.788
-0.72,88.159,4.571
-0.68,83.702,4.342
-0.65,79.175,4.158
-0.62,74.753,3.941
-0.59,70.261,3.712
-0.55,65.768,3.482
-0.52,61.241,3.265
-0.49,56.749,3.001
-0.46,52.081,2.784
-0.42,47.589,2.543
-0.39,42.781,2.314
-0.36,38.254,2.142
-0.33,33.411,1.879
-0.29,29.971,1.833
-0.26,24.146,0.997
-0.23,19.022,1.398
-0.2,16.179,0.985
-0.16,10.529,0.561
-0.13,5.826,0.63
-0.1,1.93,0.378
-0.07,-2.702,0.103
-0.03,-7.335,0.046
0.0,-11.546,-0.16
0.03,-16.039,-0.504
0.07,-20.39,-0.836
0.1,-24.532,-1.272
0.13,-28.708,-1.821
0.16,-33.13,-2.28
0.2,-37.376,-2.726
0.23,-41.974,-3.047
0.26,-46.326,-3.311
0.29,-50.607,-3.563
0.33,-54.889,-3.712
0.36,-58.925,-3.872
0.39,-62.856,-4.021
0.42,-66.786,-4.193
0.46,-70.506,-4.41
0.49,-74.191,-4.639
0.52,-77.806,-4.914
0.55,-81.561,-5.132
0.59,-85.106,-5.384
0.62,-88.756,-5.636
0.65,-92.511,-5.831
0.68,-96.196,-6.083
0.72,-99.951,-6.278
0.75,-103.426,-6.484
0.78,-107.005,-6.736
0.81,-110.655,-6.942
0.85,-114.2,-7.16
0.88,-117.744,-7.366
0.91,-121.465,-7.595
0.94,-125.079,-7.813
0.98,-128.87,-8.053
1.01,-132.449,-8.259
1.04,-135.994,-8.5
1.07,-138.38,-8.5
1.11,-142.03,-9.13
1.14,-146.733,-9.119
1.17,-150.278,-9.428
1.2,-155.051,-9.909
1.24,-159.613,-10.001
1.27,-163.123,-10.173
1.3,-166.422,-10.39
1.33,-170.142,-10.585
1.37,-173.511,-10.722
1.4,-176.775,-10.952
1.43,-179.968,-11.158
1.46,-183.267,-11.318
1.5,-186.531,-11.49
1.53,-189.935,-11.662
1.56,-192.567,-11.753
1.59,-196.182,-12.223
1.63,-199.867,-12.246
1.66,-202.57,-12.509
1.69,-206.114,-12.819
1.72,-209.518,-12.956
1.76,-212.186,-12.968
1.79,-213.028,-12.91
1.82,-216.327,-13.655
1.85,-222.398,-13.827
1.89,-225.732,-13.758
1.92,-227.628,-14.125
1.95,-230.084,-14.4
1.98,-232.365,-14.468
2.02,-234.366,-14.514
2.05,-236.507,-14.537
2.08,-238.823,-14.617
2.11,-241.174,-14.892
2.15,-243.947,-15.167
2.18,-246.79,-15.396
2.21,-249.702,-15.614
2.25,-252.545,-15.797
2.28,-255.353,-16.015
2.31,-258.02,-16.175
2.34,-260.371,-16.29
2.38,-262.582,-16.404
2.41,-264.688,-16.485
2.44,-266.618,-16.599
2.47,-268.584,-16.737
2.51,-270.549,-16.851
2.54,-272.479,-16.977
2.57,-274.409,-17.126
2.6,-276.375,-17.275
2.64,-278.41,-17.447
2.67,-280.516,-17.607
2.7,-282.516,-17.802
2.73,-284.587,-17.939
2.77,-286.552,-18.031
2.8,-288.342,-18.123
2.83,-290.097,-18.26
2.86,-291.887,-18.317
2.9,-293.571,-18.398
2.93,-295.081,-18.524
2.96,-296.73,-18.615
2.99,-297.713,-18.592
3.03,-299.362,-18.833
3.06,-300.941,-18.753
3.09,-301.784,-18.936
3.12,-303.188,-19.085
3.16,-304.381,-19.154
3.19,-305.609,-19.268
3.22,-306.837,-19.371
3.25,-308.031,-19.463
3.29,-309.189,-19.543
3.32,-310.382,-19.6
3.35,-311.435,-19.612
3.38,-312.312,-19.658
3.42,-313.19,-19.704
3.45,-313.892,-19.738
3.48,-314.664,-19.841
3.51,-315.401,-19.864
3.55,-316.032,-19.91
3.58,-316.805,-19.933
3.61,-317.436,-19.967
3.64,-318.033,-20.013
3.68,-318.594,-20.104
3.71,-319.191,-20.162
3.74,-319.753,-20.208
3.77,-320.279,-20.253
3.81,-320.805,-20.265
3.84,-321.191,-20.334
3.87,-321.718,-20.345
3.9,-322.279,-20.311
3.94,-322.736,-20.288
3.97,-323.087,-20.288
4.0,-323.508,-20.345
4.03,-323.859,-20.402
4.07,-324.28,-20.437
4.1,-324.666,-20.471
4.13,-324.947,-20.517
4.16,-325.333,-20.517
4.2,-325.719,-20.471
4.23,-325.894,-20.46
4.26,-326.245,-20.46
4.3,-326.456,-20.414
4.33,-326.631,-20.46
4.36,-327.017,-20.368
4.39,-327.228,-20.334
4.43,-327.473,-20.23
4.46,-327.579,-20.173
4.49,-327.684,-20.196
4.52,-327.859,-20.185
4.56,-327.93,-20.196
4.59,-328.105,-20.173
4.62,-328.21,-20.127
4.65,-328.351,-20.082
4.69,-328.421,-20.047
4.72,-328.491,-20.001
4.75,-328.596,-19.91
4.78,-328.596,-19.852
4.82,-328.596,-19.818
4.85,-328.596,-19.807
4.88,-328.667,-19.738
4.91,-328.667,-19.681
4.95,-328.702,-19.589
4.98,-328.702,-19.486
5.01,-328.596,-19.429
5.04,-328.596,-19.337
5.08,-328.526,-19.257
5.11,-328.421,-19.177
5.14,-328.246,-19.119
5.17,-328.105,-19.028
5.21,-327.93,-18.89
5.24,-327.614,-18.787
5.27,-327.193,-18.638
5.3,-326.701,-18.432
5.34,-325.929,-18.306
5.37,-324.911,-18.134
5.4,-323.438,-17.985
5.43,-321.858,-17.825
5.47,-320.068,-17.596
5.5,-317.892,-17.424
5.53,-315.927,-17.286
5.56,-314.032,-17.149
5.6,-311.926,-16.966
5.63,-309.54,-16.828
5.66,-307.153,-16.668
5.69,-304.591,-16.485
5.73,-301.959,-16.336
5.76,-299.257,-16.175
5.79,-296.344,-16.003
5.82,-293.291,-15.809
5.86,-290.167,-15.637
5.89,-287.044,-15.454
5.92,-283.78,-15.282
5.95,-280.586,-15.11
5.99,-277.393,-14.949
6.02,-274.164,-14.835
6.05,-271.146,-14.686
6.08,-268.233,-14.537
6.12,-265.285,-14.365
6.15,-262.302,-14.193
6.18,-259.213,-14.056
6.21,-256.09,-13.861
6.25,-252.826,-13.724
6.28,-249.702,-13.529
6.31,-246.544,-13.311
6.34,-243.245,-13.117
6.38,-240.016,-12.933
6.41,-236.823,-12.727
6.44,-233.488,-12.578
6.48,-230.225,-12.429
6.51,-226.961,-12.235
6.54,-223.697,-12.04
6.57,-220.433,-11.845
6.61,-217.134,-11.639
6.64,-213.765,-11.387
6.67,-210.291,-11.169
6.7,-206.711,-10.963
6.74,-203.166,-10.745
6.77,-199.481,-10.573
6.8,-195.831,-10.367
6.83,-192.111,-10.104
6.87,-188.181,-9.886
6.9,-184.355,-9.657
6.93,-180.389,-9.439
6.96,-176.353,-9.222
7.0,-172.353,-8.993
7.03,-168.141,-8.786
7.06,-164.0,-8.557
7.09,-159.718,-8.317
7.13,-155.402,-8.133
7.16,-151.12,-7.939
7.19,-146.838,-7.687
7.22,-142.487,-7.458
7.26,-138.1,-7.228
7.29,-133.643,-6.976
7.32,-129.115,-6.724
7.35,-124.693,-6.461
7.39,-120.131,-6.197
7.42,-115.569,-5.957
7.45,-110.971,-5.739
7.48,-106.444,-5.556
7.52,-101.881,-5.304
7.55,-97.214,-5.098
7.58,-92.686,-4.869
7.61,-88.194,-4.639
7.65,-83.667,-4.387
7.68,-79.245,-4.135
7.71,-74.753,-3.895
7.74,-70.155,-3.757
7.78,-65.733,-3.551
7.81,-61.206,-3.299
7.84,-56.573,-3.093
7.87,-52.081,-2.921
7.91,-47.519,-2.658
7.94,-42.886,-2.429
7.97,-38.429,-2.154
8.0,-33.832,-1.89
8.04,-29.269,-1.638
8.07,-24.496,-1.432
8.1,-19.934,-1.249
8.13,-15.407,-1.008
8.17,-10.915,-0.768
8.2,-6.387,-0.527
8.23,-1.93,-0.344
8.26,2.702,-0.16
8.3,7.195,-0.034
8.33,11.827,0.172
8.36,16.074,0.447
8.39,20.636,0.825
8.43,23.654,1.031
8.46,28.989,2.177
8.49,33.797,2.062
8.53,36.359,2.726
8.56,42.079,3.276
8.59,46.852,3.196
8.62,50.537,3.448
8.66,54.819,3.723
8.69,59.065,3.792
8.72,62.68,4.009
8.75,66.716,4.273
8.79,70.506,4.456
8.82,74.226,4.697
8.85,77.982,4.903
8.88,81.702,5.109
8.92,85.352,5.304
8.95,89.037,5.51
8.98,92.651,5.739
9.01,96.336,6.003
9.05,99.951,6.255
9.08,103.531,6.472
9.11,107.251,6.701
9.14,110.831,6.862
9.18,114.305,7.091
9.21,117.92,7.354
9.24,121.675,7.606
9.27,125.395,7.836
9.31,129.08,8.111
9.34,132.87,8.34
9.37,136.555,8.477
9.4,139.433,8.569
9.44,142.346,8.855
9.47,146.487,9.176
9.5,150.909,9.462
9.53,155.296,9.806
9.57,159.613,10.069
9.6,163.298,10.241
9.63,166.737,10.47
9.66,170.387,10.596
9.7,173.862,10.745
9.73,177.09,10.917
9.76,180.495,11.204
9.79,183.794,11.284
9.83,187.057,11.559
9.86,190.146,11.616
9.89,193.129,11.983
9.92,197.446,12.212
9.96,199.937,12.166
9.99,202.991,12.601
10.02,206.746,12.704
10.05,209.869,12.876
10.09,212.642,13.014
10.12,213.905,12.945
10.15,216.011,13.563
10.18,222.153,14.033
10.22,226.329,13.815
10.25,228.435,14.09
10.28,230.927,14.285
10.31,233.102,14.388
10.35,234.962,14.468
10.38,236.928,14.652
10.41,239.209,14.835
10.44,241.701,15.03
10.48,244.473,15.167
10.51,247.281,15.408
10.54,250.229,15.625
10.57,252.966,15.82
10.61,255.458,16.026
10.64,258.125,16.221
10.67,260.442,16.313
10.71,262.653,16.45
10.74,264.934,16.553
10.77,267.004,16.656
10.8,268.97,16.805
10.84,270.9,16.977
10.87,272.83,17.115
10.9,274.831,17.241
10.93,276.691,17.378
10.97,278.796,17.538
11.0,280.972,17.642
11.03,282.973,17.768
11.06,284.903,17.928
11.1,286.728,18.065
11.13,288.518,18.26
11.16,290.308,18.352
11.19,291.922,18.466
11.23,293.642,18.535
11.26,295.221,18.627
11.29,296.835,18.684
11.32,298.204,18.799
11.36,299.573,18.902
11.39,300.836,19.085
11.42,302.275,19.073
11.45,302.556,19.142
11.49,304.907,19.474
11.52,306.1,19.119
11.55,306.978,19.474
11.58,308.452,19.383
11.62,309.224,19.578
11.65,310.522,19.6
11.68,311.4,19.658
11.71,312.383,19.681
11.75,313.084,19.772
11.78,313.927,19.841
11.81,314.734,19.852
11.84,315.366,19.921
11.88,316.103,19.967
11.91,316.805,20.036
11.94,317.436,20.082
11.97,318.103,20.162
12.01,318.665,20.242
12.04,319.331,20.253
12.07,319.928,20.208
12.1,320.419,20.208
12.14,320.84,20.219
12.17,321.227,20.265
12.2,321.823,20.299
12.23,322.244,20.311
12.27,322.665,20.368
12.3,323.087,20.391
12.33,323.613,20.357
12.36,324.069,20.253
12.4,324.385,20.242
12.43,324.736,20.265
12.46,324.947,20.334
12.49,325.298,20.414
12.53,325.613,20.437
12.56,325.894,20.517
12.59,326.245,20.46
12.62,326.456,20.391
12.66,326.736,20.379
12.69,326.912,20.311
12.72,326.807,20.357
12.76,327.263,20.379
12.79,327.544,20.299
12.82,327.649,20.345
12.85,327.895,20.265
12.89,328.07,20.15
12.92,328.175,20.082
12.95,328.281,20.047
12.98,328.386,20.047
13.02,328.456,20.059
13.05,328.561,20.001
13.08,328.561,20.047
13.11,328.702,19.967
13.15,328.667,19.91
13.18,328.772,19.887
13.21,328.807,19.749
13.24,328.772,19.749
13.28,328.807,19.646
13.31,328.772,19.555
13.34,328.807,19.452
13.37,328.702,19.348
13.41,328.737,19.177
13.44,328.561,19.051
13.47,328.456,18.959
13.5,328.175,18.89
13.54,327.824,18.925
13.57,327.649,18.844
13.6,327.158,18.776
13.63,326.772,18.627
13.67,326.105,18.409
13.7,325.087,18.214
13.73,323.613,18.031
13.76,322.069,17.871
13.8,320.244,17.71
